# File BD+191947
# Wavelength [nm]    Normalized Amplitude
   349.70         0.5555
   349.84         0.5494
   349.98         0.5450
   350.12         0.5409
   350.26         0.5365
   350.40         0.5318
   350.54         0.5274
   350.68         0.5242
   350.82         0.5225
   350.96         0.5219
   351.10         0.5218
   351.24         0.5219
   351.38         0.5225
   351.52         0.5242
   351.66         0.5274
   351.80         0.5318
   351.94         0.5365
   352.08         0.5409
   352.22         0.5450
   352.36         0.5494
   352.50         0.5555
   352.64         0.5651
   352.78         0.5799
   352.92         0.6012
   353.06         0.6295
   353.20         0.6641
   353.34         0.7032
   353.48         0.7444
   353.62         0.7848
   353.76         0.8218
   353.90         0.8538
   354.04         0.8802
   354.18         0.9006
   354.32         0.9152
   354.46         0.9236
   354.60         0.9265
   354.74         0.9254
   354.88         0.9220
   355.02         0.9175
   355.16         0.9126
   355.30         0.9072
   355.44         0.9010
   355.58         0.8932
   355.72         0.8829
   355.86         0.8688
   356.00         0.8501
   356.14         0.8263
   356.28         0.7979
   356.42         0.7659
   356.56         0.7313
   356.70         0.6955
   356.84         0.6595
   356.98         0.6242
   357.12         0.5908
   357.26         0.5609
   357.40         0.5361
   357.54         0.5169
   357.68         0.5029
   357.82         0.4936
   357.96         0.4891
   358.10         0.4894
   358.24         0.4943
   358.38         0.5039
   358.52         0.5185
   358.66         0.5379
   358.80         0.5618
   358.94         0.5894
   359.08         0.6191
   359.22         0.6496
   359.36         0.6791
   359.50         0.7057
   359.64         0.7274
   359.78         0.7431
   359.92         0.7527
   360.06         0.7564
   360.20         0.7561
   360.34         0.7548
   360.48         0.7563
   360.62         0.7636
   360.76         0.7783
   360.90         0.8008
   361.04         0.8314
   361.18         0.8694
   361.32         0.9135
   361.46         0.9623
   361.60         1.0138
   361.74         1.0657
   361.88         1.1151
   362.02         1.1591
   362.16         1.1948
   362.30         1.2203
   362.44         1.2356
   362.58         1.2415
   362.72         1.2405
   362.86         1.2361
   363.00         1.2305
   363.14         1.2244
   363.28         1.2177
   363.42         1.2099
   363.56         1.2019
   363.70         1.1947
   363.84         1.1890
   363.98         1.1855
   364.12         1.1840
   364.26         1.1845
   364.40         1.1875
   364.54         1.1943
   364.68         1.2066
   364.82         1.2261
   364.96         1.2546
   365.10         1.2927
   365.24         1.3397
   365.38         1.3935
   365.52         1.4508
   365.66         1.5075
   365.80         1.5591
   365.94         1.6017
   366.08         1.6330
   366.22         1.6532
   366.36         1.6643
   366.50         1.6698
   366.64         1.6730
   366.78         1.6764
   366.92         1.6813
   367.06         1.6884
   367.20         1.6970
   367.34         1.7055
   367.48         1.7117
   367.62         1.7129
   367.76         1.7065
   367.90         1.6912
   368.04         1.6680
   368.18         1.6389
   368.32         1.6064
   368.46         1.5735
   368.60         1.5447
   368.74         1.5259
   368.88         1.5224
   369.02         1.5375
   369.16         1.5705
   369.30         1.6166
   369.44         1.6686
   369.58         1.7190
   369.72         1.7608
   369.86         1.7884
   370.00         1.7994
   370.14         1.7943
   370.28         1.7765
   370.42         1.7515
   370.56         1.7254
   370.70         1.7034
   370.84         1.6874
   370.98         1.6762
   371.12         1.6678
   371.26         1.6603
   371.40         1.6521
   371.54         1.6417
   371.68         1.6270
   371.82         1.6060
   371.96         1.5776
   372.10         1.5419
   372.24         1.5006
   372.38         1.4558
   372.52         1.4103
   372.66         1.3664
   372.80         1.3260
   372.94         1.2898
   373.08         1.2582
   373.22         1.2308
   373.36         1.2061
   373.50         1.1823
   373.64         1.1594
   373.78         1.1387
   373.92         1.1231
   374.06         1.1155
   374.20         1.1179
   374.34         1.1319
   374.48         1.1584
   374.62         1.1970
   374.76         1.2459
   374.90         1.3034
   375.04         1.3681
   375.18         1.4387
   375.32         1.5133
   375.46         1.5893
   375.60         1.6635
   375.74         1.7330
   375.88         1.7951
   376.02         1.8498
   376.16         1.8995
   376.30         1.9482
   376.44         2.0000
   376.58         2.0577
   376.72         2.1225
   376.86         2.1937
   377.00         2.2691
   377.14         2.3455
   377.28         2.4183
   377.42         2.4836
   377.56         2.5367
   377.70         2.5729
   377.84         2.5879
   377.98         2.5799
   378.12         2.5495
   378.26         2.5001
   378.40         2.4364
   378.54         2.3638
   378.68         2.2875
   378.82         2.2120
   378.96         2.1420
   379.10         2.0831
   379.24         2.0408
   379.38         2.0194
   379.52         2.0200
   379.66         2.0407
   379.80         2.0770
   379.94         2.1237
   380.08         2.1751
   380.22         2.2254
   380.36         2.2689
   380.50         2.3012
   380.64         2.3187
   380.78         2.3189
   380.92         2.2997
   381.06         2.2602
   381.20         2.2011
   381.34         2.1248
   381.48         2.0358
   381.62         1.9401
   381.76         1.8444
   381.90         1.7547
   382.04         1.6757
   382.18         1.6113
   382.32         1.5645
   382.46         1.5381
   382.60         1.5334
   382.74         1.5483
   382.88         1.5780
   383.02         1.6164
   383.16         1.6588
   383.30         1.7021
   383.44         1.7446
   383.58         1.7853
   383.72         1.8235
   383.86         1.8585
   384.00         1.8897
   384.14         1.9177
   384.28         1.9438
   384.42         1.9682
   384.56         1.9889
   384.70         2.0023
   384.84         2.0050
   384.98         1.9948
   385.12         1.9720
   385.26         1.9388
   385.40         1.8987
   385.54         1.8569
   385.68         1.8206
   385.82         1.7972
   385.96         1.7921
   386.10         1.8065
   386.24         1.8377
   386.38         1.8803
   386.52         1.9282
   386.66         1.9754
   386.80         2.0173
   386.94         2.0503
   387.08         2.0726
   387.22         2.0839
   387.36         2.0852
   387.50         2.0784
   387.64         2.0660
   387.78         2.0523
   387.92         2.0422
   388.06         2.0407
   388.20         2.0519
   388.34         2.0779
   388.48         2.1176
   388.62         2.1675
   388.76         2.2234
   388.90         2.2814
   389.04         2.3382
   389.18         2.3915
   389.32         2.4397
   389.46         2.4819
   389.60         2.5171
   389.74         2.5446
   389.88         2.5649
   390.02         2.5794
   390.16         2.5903
   390.30         2.6016
   390.44         2.6168
   390.58         2.6372
   390.72         2.6613
   390.86         2.6844
   391.00         2.6996
   391.14         2.7003
   391.28         2.6817
   391.42         2.6403
   391.56         2.5747
   391.70         2.4856
   391.84         2.3750
   391.98         2.2456
   392.12         2.1010
   392.26         1.9455
   392.40         1.7851
   392.54         1.6264
   392.68         1.4759
   392.82         1.3397
   392.96         1.2229
   393.10         1.1291
   393.24         1.0601
   393.38         1.0166
   393.52         0.9988
   393.66         1.0064
   393.80         1.0398
   393.94         1.0988
   394.08         1.1826
   394.22         1.2889
   394.36         1.4136
   394.50         1.5500
   394.64         1.6896
   394.78         1.8229
   394.92         1.9405
   395.06         2.0341
   395.20         2.0966
   395.34         2.1225
   395.48         2.1083
   395.62         2.0534
   395.76         1.9610
   395.90         1.8389
   396.04         1.6992
   396.18         1.5571
   396.32         1.4288
   396.46         1.3303
   396.60         1.2744
   396.74         1.2690
   396.88         1.3161
   397.02         1.4121
   397.16         1.5500
   397.30         1.7211
   397.44         1.9171
   397.58         2.1299
   397.72         2.3510
   397.86         2.5719
   398.00         2.7855
   398.14         2.9867
   398.28         3.1730
   398.42         3.3435
   398.56         3.4989
   398.70         3.6405
   398.84         3.7700
   398.98         3.8909
   399.12         4.0067
   399.26         4.1189
   399.40         4.2267
   399.54         4.3275
   399.68         4.4192
   399.82         4.4999
   399.96         4.5688
   400.10         4.6261
   400.24         4.6742
   400.38         4.7173
   400.52         4.7610
   400.66         4.8099
   400.80         4.8662
   400.94         4.9280
   401.08         4.9904
   401.22         5.0481
   401.36         5.0976
   401.50         5.1386
   401.64         5.1720
   401.78         5.1961
   401.92         5.2053
   402.06         5.1933
   402.20         5.1568
   402.34         5.0985
   402.48         5.0281
   402.62         4.9607
   402.76         4.9128
   402.90         4.8974
   403.04         4.9199
   403.18         4.9769
   403.32         5.0579
   403.46         5.1490
   403.60         5.2375
   403.74         5.3161
   403.88         5.3824
   404.02         5.4376
   404.16         5.4827
   404.30         5.5163
   404.44         5.5356
   404.58         5.5403
   404.72         5.5348
   404.86         5.5273
   405.00         5.5268
   405.14         5.5374
   405.28         5.5569
   405.42         5.5788
   405.56         5.5951
   405.70         5.6008
   405.84         5.5949
   405.98         5.5803
   406.12         5.5637
   406.26         5.5537
   406.40         5.5549
   406.54         5.5660
   406.68         5.5816
   406.82         5.5958
   406.96         5.6052
   407.10         5.6097
   407.24         5.6113
   407.38         5.6132
   407.52         5.6191
   407.66         5.6337
   407.80         5.6624
   407.94         5.7092
   408.08         5.7764
   408.22         5.8630
   408.36         5.9637
   408.50         6.0686
   408.64         6.1653
   408.78         6.2415
   408.92         6.2861
   409.06         6.2916
   409.20         6.2573
   409.34         6.1912
   409.48         6.1066
   409.62         6.0175
   409.76         5.9345
   409.90         5.8637
   410.04         5.8082
   410.18         5.7692
   410.32         5.7461
   410.46         5.7357
   410.60         5.7329
   410.74         5.7330
   410.88         5.7319
   411.02         5.7255
   411.16         5.7116
   411.30         5.6904
   411.44         5.6646
   411.58         5.6374
   411.72         5.6115
   411.86         5.5879
   412.00         5.5657
   412.14         5.5414
   412.28         5.5102
   412.42         5.4677
   412.56         5.4132
   412.70         5.3502
   412.84         5.2853
   412.98         5.2245
   413.12         5.1711
   413.26         5.1273
   413.40         5.0954
   413.54         5.0781
   413.68         5.0773
   413.82         5.0936
   413.96         5.1258
   414.10         5.1703
   414.24         5.2230
   414.38         5.2804
   414.52         5.3416
   414.66         5.4077
   414.80         5.4816
   414.94         5.5664
   415.08         5.6644
   415.22         5.7758
   415.36         5.8979
   415.50         6.0242
   415.64         6.1455
   415.78         6.2534
   415.92         6.3405
   416.06         6.3993
   416.20         6.4207
   416.34         6.3959
   416.48         6.3204
   416.62         6.1959
   416.76         6.0305
   416.90         5.8374
   417.04         5.6325
   417.18         5.4324
   417.32         5.2520
   417.46         5.1031
   417.60         4.9928
   417.74         4.9232
   417.88         4.8926
   418.02         4.8964
   418.16         4.9290
   418.30         4.9836
   418.44         5.0518
   418.58         5.1230
   418.72         5.1866
   418.86         5.2345
   419.00         5.2632
   419.14         5.2726
   419.28         5.2651
   419.42         5.2440
   419.56         5.2136
   419.70         5.1780
   419.84         5.1407
   419.98         5.1040
   420.12         5.0684
   420.26         5.0323
   420.40         4.9923
   420.54         4.9447
   420.68         4.8851
   420.82         4.8095
   420.96         4.7136
   421.10         4.5931
   421.24         4.4449
   421.38         4.2673
   421.52         4.0609
   421.66         3.8293
   421.80         3.5802
   421.94         3.3251
   422.08         3.0775
   422.22         2.8506
   422.36         2.6558
   422.50         2.5032
   422.64         2.4010
   422.78         2.3551
   422.92         2.3693
   423.06         2.4453
   423.20         2.5829
   423.34         2.7790
   423.48         3.0258
   423.62         3.3097
   423.76         3.6132
   423.90         3.9170
   424.04         4.2023
   424.18         4.4523
   424.32         4.6541
   424.46         4.7998
   424.60         4.8864
   424.74         4.9151
   424.88         4.8909
   425.02         4.8241
   425.16         4.7299
   425.30         4.6263
   425.44         4.5304
   425.58         4.4567
   425.72         4.4148
   425.86         4.4077
   426.00         4.4300
   426.14         4.4697
   426.28         4.5111
   426.42         4.5391
   426.56         4.5427
   426.70         4.5171
   426.84         4.4638
   426.98         4.3898
   427.12         4.3049
   427.26         4.2194
   427.40         4.1424
   427.54         4.0811
   427.68         4.0397
   427.82         4.0176
   427.96         4.0096
   428.10         4.0092
   428.24         4.0113
   428.38         4.0122
   428.52         4.0093
   428.66         4.0007
   428.80         3.9858
   428.94         3.9663
   429.08         3.9455
   429.22         3.9282
   429.36         3.9178
   429.50         3.9146
   429.64         3.9154
   429.78         3.9171
   429.92         3.9180
   430.06         3.9186
   430.20         3.9193
   430.34         3.9203
   430.48         3.9231
   430.62         3.9310
   430.76         3.9475
   430.90         3.9742
   431.04         4.0094
   431.18         4.0493
   431.32         4.0895
   431.46         4.1265
   431.60         4.1602
   431.74         4.1945
   431.88         4.2351
   432.02         4.2863
   432.16         4.3504
   432.30         4.4301
   432.44         4.5276
   432.58         4.6425
   432.72         4.7690
   432.86         4.8969
   433.00         5.0155
   433.14         5.1166
   433.28         5.1948
   433.42         5.2476
   433.56         5.2756
   433.70         5.2816
   433.84         5.2702
   433.98         5.2452
   434.12         5.2098
   434.26         5.1672
   434.40         5.1201
   434.54         5.0694
   434.68         5.0152
   434.82         4.9578
   434.96         4.8984
   435.10         4.8380
   435.24         4.7781
   435.38         4.7217
   435.52         4.6737
   435.66         4.6403
   435.80         4.6264
   435.94         4.6347
   436.08         4.6648
   436.22         4.7129
   436.36         4.7728
   436.50         4.8370
   436.64         4.8993
   436.78         4.9570
   436.92         5.0091
   437.06         5.0553
   437.20         5.0933
   437.34         5.1198
   437.48         5.1325
   437.62         5.1316
   437.76         5.1185
   437.90         5.0950
   438.04         5.0637
   438.18         5.0274
   438.32         4.9885
   438.46         4.9490
   438.60         4.9108
   438.74         4.8749
   438.88         4.8417
   439.02         4.8116
   439.16         4.7842
   439.30         4.7576
   439.44         4.7272
   439.58         4.6878
   439.72         4.6371
   439.86         4.5781
   440.00         4.5193
   440.14         4.4719
   440.28         4.4456
   440.42         4.4457
   440.56         4.4743
   440.70         4.5305
   440.84         4.6103
   440.98         4.7052
   441.12         4.8028
   441.26         4.8892
   441.40         4.9513
   441.54         4.9776
   441.68         4.9601
   441.82         4.8951
   441.96         4.7844
   442.10         4.6358
   442.24         4.4618
   442.38         4.2767
   442.52         4.0942
   442.66         3.9255
   442.80         3.7786
   442.94         3.6583
   443.08         3.5662
   443.22         3.5024
   443.36         3.4656
   443.50         3.4529
   443.64         3.4610
   443.78         3.4863
   443.92         3.5269
   444.06         3.5809
   444.20         3.6457
   444.34         3.7168
   444.48         3.7896
   444.62         3.8594
   444.76         3.9212
   444.90         3.9685
   445.04         3.9945
   445.18         3.9943
   445.32         3.9656
   445.46         3.9079
   445.60         3.8230
   445.74         3.7154
   445.88         3.5924
   446.02         3.4632
   446.16         3.3374
   446.30         3.2243
   446.44         3.1315
   446.58         3.0654
   446.72         3.0302
   446.86         3.0270
   447.00         3.0539
   447.14         3.1068
   447.28         3.1802
   447.42         3.2668
   447.56         3.3594
   447.70         3.4515
   447.84         3.5380
   447.98         3.6159
   448.12         3.6845
   448.26         3.7443
   448.40         3.7960
   448.54         3.8409
   448.68         3.8812
   448.82         3.9193
   448.96         3.9569
   449.10         3.9945
   449.24         4.0314
   449.38         4.0651
   449.52         4.0913
   449.66         4.1059
   449.80         4.1065
   449.94         4.0931
   450.08         4.0664
   450.22         4.0279
   450.36         3.9797
   450.50         3.9255
   450.64         3.8707
   450.78         3.8208
   450.92         3.7812
   451.06         3.7563
   451.20         3.7493
   451.34         3.7610
   451.48         3.7891
   451.62         3.8287
   451.76         3.8738
   451.90         3.9186
   452.04         3.9584
   452.18         3.9902
   452.32         4.0131
   452.46         4.0279
   452.60         4.0383
   452.74         4.0491
   452.88         4.0654
   453.02         4.0908
   453.16         4.1273
   453.30         4.1751
   453.44         4.2317
   453.58         4.2916
   453.72         4.3470
   453.86         4.3897
   454.00         4.4135
   454.14         4.4142
   454.28         4.3910
   454.42         4.3477
   454.56         4.2918
   454.70         4.2325
   454.84         4.1795
   454.98         4.1416
   455.12         4.1266
   455.26         4.1397
   455.40         4.1827
   455.54         4.2542
   455.68         4.3509
   455.82         4.4679
   455.96         4.5982
   456.10         4.7346
   456.24         4.8701
   456.38         4.9989
   456.52         5.1171
   456.66         5.2218
   456.80         5.3099
   456.94         5.3782
   457.08         5.4237
   457.22         5.4412
   457.36         5.4226
   457.50         5.3595
   457.64         5.2463
   457.78         5.0824
   457.92         4.8718
   458.06         4.6234
   458.20         4.3492
   458.34         4.0626
   458.48         3.7777
   458.62         3.5084
   458.76         3.2676
   458.90         3.0661
   459.04         2.9115
   459.18         2.8074
   459.32         2.7527
   459.46         2.7423
   459.60         2.7695
   459.74         2.8272
   459.88         2.9082
   460.02         3.0069
   460.16         3.1203
   460.30         3.2473
   460.44         3.3858
   460.58         3.5333
   460.72         3.6865
   460.86         3.8416
   461.00         3.9935
   461.14         4.1355
