# File BD+302347
# Wavelength [nm]    Normalized Amplitude
   349.70         1.0284
   349.84         1.0233
   349.98         1.0240
   350.12         1.0301
   350.26         1.0403
   350.40         1.0525
   350.54         1.0651
   350.68         1.0765
   350.82         1.0854
   350.96         1.0911
   351.10         1.0930
   351.24         1.0911
   351.38         1.0854
   351.52         1.0765
   351.66         1.0651
   351.80         1.0525
   351.94         1.0403
   352.08         1.0301
   352.22         1.0240
   352.36         1.0233
   352.50         1.0284
   352.64         1.0390
   352.78         1.0542
   352.92         1.0726
   353.06         1.0930
   353.20         1.1141
   353.34         1.1344
   353.48         1.1524
   353.62         1.1667
   353.76         1.1765
   353.90         1.1820
   354.04         1.1839
   354.18         1.1834
   354.32         1.1812
   354.46         1.1782
   354.60         1.1751
   354.74         1.1723
   354.88         1.1703
   355.02         1.1692
   355.16         1.1695
   355.30         1.1707
   355.44         1.1716
   355.58         1.1704
   355.72         1.1656
   355.86         1.1561
   356.00         1.1406
   356.14         1.1192
   356.28         1.0927
   356.42         1.0628
   356.56         1.0316
   356.70         1.0017
   356.84         0.9748
   356.98         0.9526
   357.12         0.9362
   357.26         0.9253
   357.40         0.9187
   357.54         0.9147
   357.68         0.9118
   357.82         0.9084
   357.96         0.9034
   358.10         0.8967
   358.24         0.8898
   358.38         0.8847
   358.52         0.8838
   358.66         0.8894
   358.80         0.9035
   358.94         0.9271
   359.08         0.9595
   359.22         0.9982
   359.36         1.0398
   359.50         1.0803
   359.64         1.1158
   359.78         1.1433
   359.92         1.1605
   360.06         1.1669
   360.20         1.1630
   360.34         1.1513
   360.48         1.1351
   360.62         1.1177
   360.76         1.1012
   360.90         1.0864
   361.04         1.0738
   361.18         1.0638
   361.32         1.0567
   361.46         1.0526
   361.60         1.0517
   361.74         1.0539
   361.88         1.0590
   362.02         1.0664
   362.16         1.0749
   362.30         1.0837
   362.44         1.0919
   362.58         1.0992
   362.72         1.1052
   362.86         1.1099
   363.00         1.1134
   363.14         1.1156
   363.28         1.1160
   363.42         1.1143
   363.56         1.1112
   363.70         1.1082
   363.84         1.1063
   363.98         1.1057
   364.12         1.1070
   364.26         1.1104
   364.40         1.1158
   364.54         1.1232
   364.68         1.1325
   364.82         1.1441
   364.96         1.1584
   365.10         1.1758
   365.24         1.1959
   365.38         1.2176
   365.52         1.2397
   365.66         1.2610
   365.80         1.2798
   365.94         1.2947
   366.08         1.3049
   366.22         1.3102
   366.36         1.3109
   366.50         1.3083
   366.64         1.3038
   366.78         1.2989
   366.92         1.2946
   367.06         1.2912
   367.20         1.2883
   367.34         1.2854
   367.48         1.2822
   367.62         1.2781
   367.76         1.2723
   367.90         1.2644
   368.04         1.2553
   368.18         1.2467
   368.32         1.2394
   368.46         1.2342
   368.60         1.2318
   368.74         1.2331
   368.88         1.2383
   369.02         1.2468
   369.16         1.2575
   369.30         1.2690
   369.44         1.2798
   369.58         1.2884
   369.72         1.2937
   369.86         1.2950
   370.00         1.2924
   370.14         1.2866
   370.28         1.2788
   370.42         1.2708
   370.56         1.2646
   370.70         1.2613
   370.84         1.2610
   370.98         1.2625
   371.12         1.2646
   371.26         1.2659
   371.40         1.2656
   371.54         1.2632
   371.68         1.2589
   371.82         1.2530
   371.96         1.2460
   372.10         1.2380
   372.24         1.2289
   372.38         1.2185
   372.52         1.2065
   372.66         1.1928
   372.80         1.1773
   372.94         1.1604
   373.08         1.1425
   373.22         1.1246
   373.36         1.1073
   373.50         1.0910
   373.64         1.0760
   373.78         1.0629
   373.92         1.0523
   374.06         1.0450
   374.20         1.0418
   374.34         1.0428
   374.48         1.0481
   374.62         1.0574
   374.76         1.0696
   374.90         1.0835
   375.04         1.0980
   375.18         1.1126
   375.32         1.1272
   375.46         1.1418
   375.60         1.1561
   375.74         1.1696
   375.88         1.1813
   376.02         1.1901
   376.16         1.1957
   376.30         1.1988
   376.44         1.2011
   376.58         1.2048
   376.72         1.2120
   376.86         1.2244
   377.00         1.2429
   377.14         1.2670
   377.28         1.2956
   377.42         1.3268
   377.56         1.3590
   377.70         1.3905
   377.84         1.4194
   377.98         1.4435
   378.12         1.4607
   378.26         1.4699
   378.40         1.4702
   378.54         1.4617
   378.68         1.4453
   378.82         1.4220
   378.96         1.3936
   379.10         1.3623
   379.24         1.3309
   379.38         1.3030
   379.52         1.2822
   379.66         1.2709
   379.80         1.2705
   379.94         1.2817
   380.08         1.3030
   380.22         1.3322
   380.36         1.3658
   380.50         1.3995
   380.64         1.4297
   380.78         1.4531
   380.92         1.4673
   381.06         1.4703
   381.20         1.4615
   381.34         1.4415
   381.48         1.4116
   381.62         1.3743
   381.76         1.3324
   381.90         1.2883
   382.04         1.2443
   382.18         1.2017
   382.32         1.1614
   382.46         1.1239
   382.60         1.0895
   382.74         1.0583
   382.88         1.0306
   383.02         1.0068
   383.16         0.9880
   383.30         0.9756
   383.44         0.9708
   383.58         0.9745
   383.72         0.9868
   383.86         1.0071
   384.00         1.0345
   384.14         1.0671
   384.28         1.1031
   384.42         1.1403
   384.56         1.1765
   384.70         1.2096
   384.84         1.2372
   384.98         1.2578
   385.12         1.2706
   385.26         1.2764
   385.40         1.2769
   385.54         1.2743
   385.68         1.2709
   385.82         1.2683
   385.96         1.2678
   386.10         1.2694
   386.24         1.2731
   386.38         1.2787
   386.52         1.2863
   386.66         1.2958
   386.80         1.3062
   386.94         1.3158
   387.08         1.3226
   387.22         1.3256
   387.36         1.3242
   387.50         1.3185
   387.64         1.3087
   387.78         1.2956
   387.92         1.2800
   388.06         1.2633
   388.20         1.2467
   388.34         1.2319
   388.48         1.2204
   388.62         1.2145
   388.76         1.2163
   388.90         1.2273
   389.04         1.2480
   389.18         1.2775
   389.32         1.3131
   389.46         1.3515
   389.60         1.3895
   389.74         1.4246
   389.88         1.4554
   390.02         1.4810
   390.16         1.5014
   390.30         1.5170
   390.44         1.5291
   390.58         1.5389
   390.72         1.5478
   390.86         1.5561
   391.00         1.5636
   391.14         1.5696
   391.28         1.5735
   391.42         1.5740
   391.56         1.5689
   391.70         1.5559
   391.84         1.5325
   391.98         1.4969
   392.12         1.4478
   392.26         1.3854
   392.40         1.3114
   392.54         1.2286
   392.68         1.1411
   392.82         1.0542
   392.96         0.9732
   393.10         0.9034
   393.24         0.8496
   393.38         0.8154
   393.52         0.8034
   393.66         0.8144
   393.80         0.8479
   393.94         0.9012
   394.08         0.9698
   394.22         1.0478
   394.36         1.1295
   394.50         1.2095
   394.64         1.2832
   394.78         1.3472
   394.92         1.3990
   395.06         1.4373
   395.20         1.4610
   395.34         1.4696
   395.48         1.4625
   395.62         1.4391
   395.76         1.3995
   395.90         1.3448
   396.04         1.2778
   396.18         1.2030
   396.32         1.1257
   396.46         1.0520
   396.60         0.9882
   396.74         0.9402
   396.88         0.9129
   397.02         0.9095
   397.16         0.9307
   397.30         0.9754
   397.44         1.0397
   397.58         1.1184
   397.72         1.2056
   397.86         1.2955
   398.00         1.3830
   398.14         1.4640
   398.28         1.5359
   398.42         1.5979
   398.56         1.6500
   398.70         1.6932
   398.84         1.7292
   398.98         1.7596
   399.12         1.7858
   399.26         1.8095
   399.40         1.8312
   399.54         1.8508
   399.68         1.8677
   399.82         1.8817
   399.96         1.8931
   400.10         1.9023
   400.24         1.9102
   400.38         1.9176
   400.52         1.9251
   400.66         1.9327
   400.80         1.9404
   400.94         1.9481
   401.08         1.9561
   401.22         1.9642
   401.36         1.9724
   401.50         1.9810
   401.64         1.9900
   401.78         1.9990
   401.92         2.0070
   402.06         2.0127
   402.20         2.0149
   402.34         2.0133
   402.48         2.0085
   402.62         2.0013
   402.76         1.9927
   402.90         1.9833
   403.04         1.9740
   403.18         1.9652
   403.32         1.9573
   403.46         1.9504
   403.60         1.9442
   403.74         1.9389
   403.88         1.9346
   404.02         1.9314
   404.16         1.9293
   404.30         1.9279
   404.44         1.9267
   404.58         1.9249
   404.72         1.9223
   404.86         1.9191
   405.00         1.9155
   405.14         1.9116
   405.28         1.9066
   405.42         1.9002
   405.56         1.8920
   405.70         1.8822
   405.84         1.8714
   405.98         1.8602
   406.12         1.8496
   406.26         1.8407
   406.40         1.8345
   406.54         1.8307
   406.68         1.8283
   406.82         1.8261
   406.96         1.8238
   407.10         1.8214
   407.24         1.8194
   407.38         1.8180
   407.52         1.8179
   407.66         1.8199
   407.80         1.8247
   407.94         1.8332
   408.08         1.8459
   408.22         1.8623
   408.36         1.8811
   408.50         1.9001
   408.64         1.9167
   408.78         1.9278
   408.92         1.9305
   409.06         1.9225
   409.20         1.9024
   409.34         1.8714
   409.48         1.8325
   409.62         1.7900
   409.76         1.7480
   409.90         1.7104
   410.04         1.6805
   410.18         1.6613
   410.32         1.6545
   410.46         1.6610
   410.60         1.6799
   410.74         1.7088
   410.88         1.7442
   411.02         1.7826
   411.16         1.8205
   411.30         1.8550
   411.44         1.8841
   411.58         1.9068
   411.72         1.9234
   411.86         1.9350
   412.00         1.9424
   412.14         1.9464
   412.28         1.9473
   412.42         1.9457
   412.56         1.9425
   412.70         1.9393
   412.84         1.9377
   412.98         1.9387
   413.12         1.9424
   413.26         1.9480
   413.40         1.9547
   413.54         1.9621
   413.68         1.9697
   413.82         1.9770
   413.96         1.9833
   414.10         1.9879
   414.24         1.9903
   414.38         1.9900
   414.52         1.9868
   414.66         1.9813
   414.80         1.9745
   414.94         1.9675
   415.08         1.9615
   415.22         1.9574
   415.36         1.9556
   415.50         1.9558
   415.64         1.9576
   415.78         1.9607
   415.92         1.9648
   416.06         1.9697
   416.20         1.9744
   416.34         1.9774
   416.48         1.9774
   416.62         1.9737
   416.76         1.9659
   416.90         1.9541
   417.04         1.9394
   417.18         1.9228
   417.32         1.9057
   417.46         1.8893
   417.60         1.8745
   417.74         1.8622
   417.88         1.8527
   418.02         1.8463
   418.16         1.8432
   418.30         1.8431
   418.44         1.8453
   418.58         1.8487
   418.72         1.8517
   418.86         1.8533
   419.00         1.8531
   419.14         1.8512
   419.28         1.8484
   419.42         1.8455
   419.56         1.8434
   419.70         1.8428
   419.84         1.8445
   419.98         1.8488
   420.12         1.8563
   420.26         1.8670
   420.40         1.8804
   420.54         1.8960
   420.68         1.9125
   420.82         1.9291
   420.96         1.9443
   421.10         1.9570
   421.24         1.9660
   421.38         1.9703
   421.52         1.9694
   421.66         1.9629
   421.80         1.9511
   421.94         1.9354
   422.08         1.9175
   422.22         1.8996
   422.36         1.8833
   422.50         1.8698
   422.64         1.8597
   422.78         1.8529
   422.92         1.8491
   423.06         1.8480
   423.20         1.8494
   423.34         1.8532
   423.48         1.8588
   423.62         1.8655
   423.76         1.8719
   423.90         1.8769
   424.04         1.8798
   424.18         1.8808
   424.32         1.8808
   424.46         1.8810
   424.60         1.8824
   424.74         1.8846
   424.88         1.8869
   425.02         1.8881
   425.16         1.8872
   425.30         1.8841
   425.44         1.8795
   425.58         1.8746
   425.72         1.8703
   425.86         1.8670
   426.00         1.8643
   426.14         1.8614
   426.28         1.8575
   426.42         1.8519
   426.56         1.8445
   426.70         1.8362
   426.84         1.8278
   426.98         1.8199
   427.12         1.8129
   427.26         1.8069
   427.40         1.8022
   427.54         1.7990
   427.68         1.7977
   427.82         1.7983
   427.96         1.8003
   428.10         1.8029
   428.24         1.8048
   428.38         1.8050
   428.52         1.8023
   428.66         1.7959
   428.80         1.7853
   428.94         1.7702
   429.08         1.7508
   429.22         1.7276
   429.36         1.7012
   429.50         1.6719
   429.64         1.6400
   429.78         1.6063
   429.92         1.5717
   430.06         1.5374
   430.20         1.5051
   430.34         1.4768
   430.48         1.4550
   430.62         1.4428
   430.76         1.4431
   430.90         1.4578
   431.04         1.4871
   431.18         1.5294
   431.32         1.5812
   431.46         1.6383
   431.60         1.6963
   431.74         1.7518
   431.88         1.8021
   432.02         1.8452
   432.16         1.8797
   432.30         1.9051
   432.44         1.9216
   432.58         1.9299
   432.72         1.9307
   432.86         1.9247
   433.00         1.9122
   433.14         1.8936
   433.28         1.8699
   433.42         1.8423
   433.56         1.8123
   433.70         1.7817
   433.84         1.7526
   433.98         1.7276
   434.12         1.7090
   434.26         1.6990
   434.40         1.6991
   434.54         1.7097
   434.68         1.7297
   434.82         1.7567
   434.96         1.7882
   435.10         1.8214
   435.24         1.8539
   435.38         1.8838
   435.52         1.9101
   435.66         1.9332
   435.80         1.9538
   435.94         1.9726
   436.08         1.9898
   436.22         2.0048
   436.36         2.0169
   436.50         2.0251
   436.64         2.0288
   436.78         2.0281
   436.92         2.0236
   437.06         2.0159
   437.20         2.0054
   437.34         1.9917
   437.48         1.9752
   437.62         1.9566
   437.76         1.9374
   437.90         1.9187
   438.04         1.9015
   438.18         1.8866
   438.32         1.8748
   438.46         1.8664
   438.60         1.8621
   438.74         1.8623
   438.88         1.8669
   439.02         1.8757
   439.16         1.8876
   439.30         1.9015
   439.44         1.9158
   439.58         1.9288
   439.72         1.9389
   439.86         1.9456
   440.00         1.9497
   440.14         1.9528
   440.28         1.9568
   440.42         1.9627
   440.56         1.9705
   440.70         1.9800
   440.84         1.9911
   440.98         2.0036
   441.12         2.0176
   441.26         2.0329
   441.40         2.0492
   441.54         2.0659
   441.68         2.0826
   441.82         2.0987
   441.96         2.1137
   442.10         2.1269
   442.24         2.1380
   442.38         2.1466
   442.52         2.1525
   442.66         2.1558
   442.80         2.1566
   442.94         2.1550
   443.08         2.1508
   443.22         2.1443
   443.36         2.1366
   443.50         2.1292
   443.64         2.1234
   443.78         2.1200
   443.92         2.1191
   444.06         2.1207
   444.20         2.1238
   444.34         2.1272
   444.48         2.1291
   444.62         2.1278
   444.76         2.1227
   444.90         2.1135
   445.04         2.1004
   445.18         2.0844
   445.32         2.0672
   445.46         2.0504
   445.60         2.0351
   445.74         2.0222
   445.88         2.0128
   446.02         2.0076
   446.16         2.0074
   446.30         2.0121
   446.44         2.0213
   446.58         2.0339
   446.72         2.0485
   446.86         2.0633
   447.00         2.0763
   447.14         2.0863
   447.28         2.0933
   447.42         2.0977
   447.56         2.1002
   447.70         2.1019
   447.84         2.1035
   447.98         2.1056
   448.12         2.1082
   448.26         2.1114
   448.40         2.1147
   448.54         2.1182
   448.68         2.1222
   448.82         2.1269
   448.96         2.1319
   449.10         2.1367
   449.24         2.1410
   449.38         2.1451
   449.52         2.1493
   449.66         2.1544
   449.80         2.1610
   449.94         2.1701
   450.08         2.1818
   450.22         2.1952
   450.36         2.2090
   450.50         2.2217
   450.64         2.2321
   450.78         2.2392
   450.92         2.2427
   451.06         2.2424
   451.20         2.2388
   451.34         2.2318
   451.48         2.2214
   451.62         2.2075
   451.76         2.1907
   451.90         2.1717
   452.04         2.1513
   452.18         2.1302
   452.32         2.1090
   452.46         2.0888
   452.60         2.0706
   452.74         2.0554
   452.88         2.0441
   453.02         2.0374
   453.16         2.0360
   453.30         2.0402
   453.44         2.0498
   453.58         2.0638
   453.72         2.0802
   453.86         2.0970
   454.00         2.1120
   454.14         2.1240
   454.28         2.1323
   454.42         2.1373
   454.56         2.1394
   454.70         2.1396
   454.84         2.1385
   454.98         2.1374
   455.12         2.1375
   455.26         2.1394
   455.40         2.1431
   455.54         2.1482
   455.68         2.1547
   455.82         2.1618
   455.96         2.1690
   456.10         2.1756
   456.24         2.1812
   456.38         2.1860
   456.52         2.1905
   456.66         2.1950
   456.80         2.1998
   456.94         2.2045
   457.08         2.2083
   457.22         2.2105
   457.36         2.2103
   457.50         2.2076
   457.64         2.2023
   457.78         2.1945
   457.92         2.1848
   458.06         2.1738
   458.20         2.1621
   458.34         2.1509
   458.48         2.1412
   458.62         2.1339
   458.76         2.1301
   458.90         2.1296
   459.04         2.1319
   459.18         2.1360
   459.32         2.1406
   459.46         2.1447
   459.60         2.1476
   459.74         2.1494
   459.88         2.1502
   460.02         2.1505
   460.16         2.1504
   460.30         2.1505
   460.44         2.1511
   460.58         2.1523
   460.72         2.1545
   460.86         2.1581
   461.00         2.1638
   461.14         2.1717
