# File BD+404220
# Wavelength [nm]    Normalized Amplitude
   349.70         17113.5059
   349.84         17193.4963
   349.98         17247.2044
   350.12         17269.6175
   350.26         17264.2193
   350.40         17232.8351
   350.54         17176.7016
   350.68         17105.4004
   350.82         17036.1156
   350.96         16987.6939
   351.10         16970.7728
   351.24         16987.6939
   351.38         17036.1156
   351.52         17105.4004
   351.66         17176.7016
   351.80         17232.8351
   351.94         17264.2193
   352.08         17269.6175
   352.22         17247.2044
   352.36         17193.4963
   352.50         17113.5059
   352.64         17023.4571
   352.78         16944.2534
   352.92         16889.1541
   353.06         16863.0877
   353.20         16871.2486
   353.34         16916.9249
   353.48         16993.9323
   353.62         17084.6750
   353.76         17165.3182
   353.90         17219.1582
   354.04         17239.8480
   354.18         17224.3589
   354.32         17172.0782
   354.46         17085.9698
   354.60         16971.0612
   354.74         16835.5658
   354.88         16686.2130
   355.02         16527.5401
   355.16         16368.2514
   355.30         16222.4466
   355.44         16102.8562
   355.58         16014.3101
   355.72         15957.9384
   355.86         15932.1624
   356.00         15931.1360
   356.14         15947.0306
   356.28         15970.8756
   356.42         15997.1065
   356.56         16027.6830
   356.70         16062.8912
   356.84         16093.4359
   356.98         16106.7588
   357.12         16094.7526
   357.26         16050.5413
   357.40         15967.0488
   357.54         15842.8795
   357.68         15686.9088
   357.82         15517.7812
   357.96         15354.6216
   358.10         15212.9852
   358.24         15104.5830
   358.38         15038.3863
   358.52         15020.2878
   358.66         15045.9655
   358.80         15102.7012
   358.94         15180.8545
   359.08         15275.0021
   359.22         15376.2707
   359.36         15471.1257
   359.50         15545.9016
   359.64         15594.8450
   359.78         15620.1393
   359.92         15625.7692
   360.06         15620.9234
   360.20         15617.2596
   360.34         15620.4960
   360.48         15630.4625
   360.62         15643.4182
   360.76         15654.6199
   360.90         15656.2170
   361.04         15638.5091
   361.18         15593.8814
   361.32         15519.9971
   361.46         15422.4000
   361.60         15306.8259
   361.74         15174.6036
   361.88         15031.9707
   362.02         14895.4096
   362.16         14783.2068
   362.30         14708.2542
   362.44         14676.0043
   362.58         14686.4083
   362.72         14735.6579
   362.86         14817.0724
   363.00         14923.8081
   363.14         15047.9374
   363.28         15181.2009
   363.42         15318.7517
   363.56         15458.7740
   363.70         15596.8852
   363.84         15722.8696
   363.98         15824.9334
   364.12         15892.9391
   364.26         15922.9705
   364.40         15924.9114
   364.54         15910.8808
   364.68         15878.8507
   364.82         15818.4480
   364.96         15723.9613
   365.10         15598.4726
   365.24         15449.3225
   365.38         15285.5556
   365.52         15120.1682
   365.66         14961.5429
   365.80         14810.6221
   365.94         14670.3345
   366.08         14546.2145
   366.22         14441.5530
   366.36         14356.7328
   366.50         14292.4951
   366.64         14251.7997
   366.78         14240.1474
   366.92         14261.8356
   367.06         14313.6157
   367.20         14382.2700
   367.34         14454.1526
   367.48         14521.4929
   367.62         14577.5281
   367.76         14615.7939
   367.90         14634.6984
   368.04         14640.7847
   368.18         14641.8019
   368.32         14637.0877
   368.46         14625.0234
   368.60         14607.8666
   368.74         14584.2869
   368.88         14548.1985
   369.02         14492.6601
   369.16         14413.4173
   369.30         14310.0780
   369.44         14187.0313
   369.58         14053.1895
   369.72         13919.6473
   369.86         13797.6413
   370.00         13698.2090
   370.14         13628.8319
   370.28         13593.4136
   370.42         13596.1552
   370.56         13639.6025
   370.70         13720.1390
   370.84         13827.6298
   370.98         13950.5006
   371.12         14080.3457
   371.26         14211.0136
   371.40         14336.3697
   371.54         14451.8765
   371.68         14556.9214
   371.82         14654.2900
   371.96         14746.9805
   372.10         14835.5861
   372.24         14916.1321
   372.38         14977.7975
   372.52         15009.6516
   372.66         15009.4084
   372.80         14982.2798
   372.94         14938.4096
   373.08         14890.7306
   373.22         14846.6509
   373.36         14803.7800
   373.50         14757.4801
   373.64         14704.3056
   373.78         14638.8898
   373.92         14554.2010
   374.06         14445.9018
   374.20         14317.0560
   374.34         14176.1156
   374.48         14028.9726
   374.62         13875.8856
   374.76         13716.9122
   374.90         13558.6570
   375.04         13415.8281
   375.18         13310.0173
   375.32         13259.0215
   375.46         13266.9516
   375.60         13327.5740
   375.74         13428.1271
   375.88         13551.5489
   376.02         13680.9370
   376.16         13803.3323
   376.30         13907.6839
   376.44         13986.0040
   376.58         14039.1668
   376.72         14076.1129
   376.86         14105.1437
   377.00         14127.6754
   377.14         14142.7015
   377.28         14152.6667
   377.42         14162.5667
   377.56         14177.1098
   377.70         14197.1972
   377.84         14217.9261
   377.98         14228.6532
   378.12         14218.2462
   378.26         14181.8996
   378.40         14119.9409
   378.54         14035.6942
   378.68         13936.6965
   378.82         13835.1345
   378.96         13744.7674
   379.10         13679.7024
   379.24         13652.4753
   379.38         13670.1564
   379.52         13736.0069
   379.66         13853.0272
   379.80         14022.1452
   379.94         14234.9555
   380.08         14472.6090
   380.22         14713.8247
   380.36         14940.6436
   380.50         15139.2327
   380.64         15297.5918
   380.78         15403.4012
   380.92         15445.1042
   381.06         15414.5320
   381.20         15312.1566
   381.34         15150.7645
   381.48         14949.5309
   381.62         14728.6680
   381.76         14509.1346
   381.90         14307.3790
   382.04         14131.4774
   382.18         13981.2244
   382.32         13848.5201
   382.46         13720.9529
   382.60         13587.1990
   382.74         13441.5568
   382.88         13286.1938
   383.02         13128.5848
   383.16         12976.4738
   383.30         12837.6044
   383.44         12722.5604
   383.58         12644.2670
   383.72         12616.0655
   383.86         12649.2818
   384.00         12746.7577
   384.14         12898.5112
   384.28         13087.1425
   384.42         13292.1070
   384.56         13490.3313
   384.70         13661.7021
   384.84         13793.0418
   384.98         13878.2727
   385.12         13917.3477
   385.26         13912.7555
   385.40         13867.9312
   385.54         13790.1013
   385.68         13689.1357
   385.82         13574.3058
   385.96         13455.0165
   386.10         13339.6167
   386.24         13232.4034
   386.38         13135.3065
   386.52         13049.7057
   386.66         12975.4152
   386.80         12912.1698
   386.94         12860.6787
   387.08         12820.6962
   387.22         12790.1651
   387.36         12765.8092
   387.50         12742.4019
   387.64         12713.0331
   387.78         12672.6977
   387.92         12620.1316
   388.06         12558.8406
   388.20         12497.2471
   388.34         12444.6595
   388.48         12409.1131
   388.62         12397.0729
   388.76         12409.6687
   388.90         12441.4093
   389.04         12486.2267
   389.18         12540.6393
   389.32         12602.2330
   389.46         12667.3767
   389.60         12728.9352
   389.74         12778.2641
   389.88         12809.4825
   390.02         12820.6848
   390.16         12812.5853
   390.30         12787.5919
   390.44         12750.1334
   390.58         12706.4215
   390.72         12662.7418
   390.86         12623.2476
   391.00         12589.5045
   391.14         12562.1725
   391.28         12540.7213
   391.42         12521.4754
   391.56         12499.8337
   391.70         12474.4396
   391.84         12446.7021
   391.98         12417.8681
   392.12         12386.7467
   392.26         12350.8536
   392.40         12310.4475
   392.54         12268.8720
   392.68         12229.5359
   392.82         12195.2619
   392.96         12169.4296
   393.10         12156.0602
   393.24         12159.1055
   393.38         12180.5922
   393.52         12219.4203
   393.66         12272.7190
   393.80         12336.6414
   393.94         12405.2731
   394.08         12471.0883
   394.22         12527.8158
   394.36         12572.7415
   394.50         12606.1173
   394.64         12628.7141
   394.78         12640.5958
   394.92         12642.5571
   395.06         12637.0978
   395.20         12626.6612
   395.34         12611.3634
   395.48         12586.6084
   395.62         12542.9262
   395.76         12470.9618
   395.90         12365.7196
   396.04         12226.6360
   396.18         12059.0294
   396.32         11874.6569
   396.46         11688.7028
   396.60         11517.0693
   396.74         11375.0153
   396.88         11276.2504
   397.02         11230.1975
   397.16         11239.5049
   397.30         11300.0801
   397.44         11401.9312
   397.58         11531.5646
   397.72         11674.8713
   397.86         11817.9214
   398.00         11947.1038
   398.14         12051.9266
   398.28         12128.6385
   398.42         12179.7884
   398.56         12209.8889
   398.70         12222.9189
   398.84         12222.6198
   398.98         12210.4646
   399.12         12184.6577
   399.26         12141.9743
   399.40         12080.5480
   399.54         12000.2249
   399.68         11901.7952
   399.82         11789.7302
   399.96         11672.2100
   400.10         11557.3367
   400.24         11452.2436
   400.38         11364.1589
   400.52         11298.9887
   400.66         11258.8298
   400.80         11242.1314
   400.94         11245.0221
   401.08         11261.4190
   401.22         11283.8928
   401.36         11304.6151
   401.50         11316.9568
   401.64         11317.8011
   401.78         11306.2576
   401.92         11281.9881
   402.06         11246.8543
   402.20         11204.9316
   402.34         11161.4005
   402.48         11122.2351
   402.62         11092.1012
   402.76         11072.2111
   402.90         11061.9177
   403.04         11060.9561
   403.18         11068.4905
   403.32         11082.1927
   403.46         11099.4489
   403.60         11117.6156
   403.74         11132.6141
   403.88         11139.9173
   404.02         11136.8281
   404.16         11122.9392
   404.30         11099.1942
   404.44         11066.4001
   404.58         11026.6658
   404.72         10984.3213
   404.86         10943.7072
   405.00         10907.5757
   405.14         10877.2366
   405.28         10853.3104
   405.42         10835.5451
   405.56         10823.6732
   405.70         10817.9756
   405.84         10818.0557
   405.98         10822.6822
   406.12         10829.7869
   406.26         10835.8112
   406.40         10836.4703
   406.54         10828.6161
   406.68         10811.5736
   406.82         10786.7174
   406.96         10756.7254
   407.10         10724.7535
   407.24         10692.5121
   407.38         10659.3397
   407.52         10623.9804
   407.66         10585.5151
   407.80         10543.4755
   407.94         10498.5017
   408.08         10450.8725
   408.22         10399.3404
   408.36         10341.5786
   408.50         10274.2481
   408.64         10193.0276
   408.78         10093.6145
   408.92         9974.6006
   409.06         9839.6115
   409.20         9696.5333
   409.34         9555.9627
   409.48         9429.2517
   409.62         9327.4331
   409.76         9260.3758
   409.90         9233.8364
   410.04         9248.8219
   410.18         9303.2048
   410.32         9392.2245
   410.46         9508.7578
   410.60         9643.4533
   410.74         9785.4264
   410.88         9923.7286
   411.02         10048.6272
   411.16         10152.6488
   411.30         10231.2371
   411.44         10282.8930
   411.58         10308.8640
   411.72         10311.4460
   411.86         10294.0106
   412.00         10261.5631
   412.14         10218.4129
   412.28         10168.0740
   412.42         10114.5172
   412.56         10062.0796
   412.70         10015.6982
   412.84         9980.1091
   412.98         9957.5698
   413.12         9946.7799
   413.26         9944.3908
   413.40         9946.7696
   413.54         9950.0421
   413.68         9950.2026
   413.82         9944.1642
   413.96         9930.1197
   414.10         9907.4739
   414.24         9876.5396
   414.38         9837.7925
   414.52         9792.6100
   414.66         9743.7901
   414.80         9694.5013
   414.94         9647.8382
   415.08         9605.7818
   415.22         9568.7586
   415.36         9536.2594
   415.50         9507.4936
   415.64         9482.3136
   415.78         9461.7623
   415.92         9447.1809
   416.06         9438.7046
   416.20         9435.0317
   416.34         9433.9815
   416.48         9432.2870
   416.62         9425.3006
   416.76         9408.8607
   416.90         9381.5029
   417.04         9344.7134
   417.18         9301.8120
   417.32         9256.9884
   417.46         9213.8300
   417.60         9174.3566
   417.74         9139.8135
   417.88         9111.3504
   418.02         9089.4751
   418.16         9074.0211
   418.30         9064.4603
   418.44         9058.8017
   418.58         9053.5590
   418.72         9045.4767
   418.86         9032.6956
   419.00         9014.2889
   419.14         8989.9856
   419.28         8961.7389
   419.42         8934.3009
   419.56         8912.6992
   419.70         8900.1057
   419.84         8897.4594
   419.98         8903.8129
   420.12         8916.5620
   420.26         8932.0263
   420.40         8947.2458
   420.54         8961.1246
   420.68         8974.0418
   420.82         8986.8985
   420.96         9000.3966
   421.10         9014.5312
   421.24         9028.8072
   421.38         9043.2979
   421.52         9058.7553
   421.66         9075.4701
   421.80         9092.9808
   421.94         9110.6964
   422.08         9127.8739
   422.22         9143.1037
   422.36         9154.5253
   422.50         9159.8631
   422.64         9157.0775
   422.78         9145.7217
   422.92         9127.2718
   423.06         9104.2828
   423.20         9079.3254
   423.34         9054.6886
   423.48         9032.0669
   423.62         9012.1624
   423.76         8994.7405
   423.90         8979.5539
   424.04         8967.1713
   424.18         8957.9313
   424.32         8951.2234
   424.46         8946.6277
   424.60         8944.6207
   424.74         8945.0932
   424.88         8946.1586
   425.02         8945.2874
   425.16         8940.3943
   425.30         8930.1963
   425.44         8914.3872
   425.58         8893.3817
   425.72         8867.4982
   425.86         8836.1749
   426.00         8798.1340
   426.14         8752.5257
   426.28         8700.5374
   426.42         8645.9075
   426.56         8593.2664
   426.70         8546.3941
   426.84         8507.7792
   426.98         8478.9182
   427.12         8460.9993
   427.26         8454.5944
   427.40         8458.4437
   427.54         8469.8309
   427.68         8486.0898
   427.82         8505.3770
   427.96         8526.6069
   428.10         8549.1210
   428.24         8572.0050
   428.38         8593.7187
   428.52         8612.8513
   428.66         8629.1157
   428.80         8643.7732
   428.94         8658.2522
   429.08         8672.0238
   429.22         8682.2887
   429.36         8685.4970
   429.50         8679.2131
   429.64         8662.9801
   429.78         8637.8928
   429.92         8605.6775
   430.06         8568.9323
   430.20         8531.4840
   430.34         8497.8402
   430.48         8472.1727
   430.62         8456.7860
   430.76         8451.8109
   430.90         8455.8306
   431.04         8466.3593
   431.18         8480.9273
   431.32         8497.7709
   431.46         8515.3638
   431.60         8531.7685
   431.74         8545.0536
   431.88         8554.1489
   432.02         8558.7977
   432.16         8559.2254
   432.30         8555.3044
   432.44         8546.0335
   432.58         8530.3721
   432.72         8507.7072
   432.86         8477.2694
   433.00         8438.3527
   433.14         8391.2475
   433.28         8337.6967
   433.42         8281.6304
   433.56         8228.7597
   433.70         8184.6489
   433.84         8153.6282
   433.98         8137.8897
   434.12         8137.5205
   434.26         8152.0403
   434.40         8180.1405
   434.54         8218.5907
   434.68         8262.8049
   434.82         8308.4159
   434.96         8352.2659
   435.10         8392.8302
   435.24         8429.9558
   435.38         8463.5959
   435.52         8493.0396
   435.66         8517.4015
   435.80         8536.1495
   435.94         8548.8994
   436.08         8555.0372
   436.22         8553.7368
   436.36         8543.8873
   436.50         8524.6883
   436.64         8497.1237
   436.78         8464.4103
   436.92         8430.5701
   437.06         8398.8791
   437.20         8372.1702
   437.34         8352.8277
   437.48         8342.0035
   437.62         8339.1690
   437.76         8342.3087
   437.90         8348.4282
   438.04         8353.9160
   438.18         8355.9003
   438.32         8353.5213
   438.46         8346.8625
   438.60         8336.2919
   438.74         8322.7758
   438.88         8307.2553
   439.02         8290.0237
   439.16         8271.6078
   439.30         8253.6488
   439.44         8237.6525
   439.58         8223.6235
   439.72         8210.7571
   439.86         8198.4871
   440.00         8186.0837
   440.14         8172.1647
   440.28         8155.0213
   440.42         8133.8038
   440.56         8108.9812
   440.70         8080.9840
   440.84         8049.8143
   440.98         8014.7548
   441.12         7973.6673
   441.26         7924.2309
   441.40         7865.1789
   441.54         7796.4211
   441.68         7719.0985
   441.82         7635.1100
   441.96         7546.4268
   442.10         7455.5165
   442.24         7365.8674
   442.38         7281.7177
   442.52         7207.0002
   442.66         7144.1613
   442.80         7094.3427
   442.94         7058.7991
   443.08         7039.1060
   443.22         7035.5123
   443.36         7046.1256
   443.50         7068.1281
   443.64         7098.5534
   443.78         7134.6998
   443.92         7174.4877
   444.06         7216.3569
   444.20         7258.7809
   444.34         7300.1667
   444.48         7339.7939
   444.62         7377.9729
   444.76         7414.7865
   444.90         7448.6796
   445.04         7477.9104
   445.18         7501.7808
   445.32         7519.6208
   445.46         7530.7315
   445.60         7534.2774
   445.74         7528.5947
   445.88         7511.5136
   446.02         7481.5003
   446.16         7438.4851
   446.30         7384.6158
   446.44         7324.5608
   446.58         7264.6346
   446.72         7211.9877
   446.86         7173.6360
   447.00         7154.8508
