# File BD+581199
# Wavelength [nm]    Normalized Amplitude
   349.70         1.9642
   349.84         1.9603
   349.98         1.9644
   350.12         1.9754
   350.26         1.9918
   350.40         2.0115
   350.54         2.0320
   350.68         2.0510
   350.82         2.0669
   350.96         2.0777
   351.10         2.0816
   351.24         2.0777
   351.38         2.0669
   351.52         2.0510
   351.66         2.0320
   351.80         2.0115
   351.94         1.9918
   352.08         1.9754
   352.22         1.9644
   352.36         1.9603
   352.50         1.9642
   352.64         1.9769
   352.78         1.9988
   352.92         2.0294
   353.06         2.0673
   353.20         2.1098
   353.34         2.1543
   353.48         2.1973
   353.62         2.2355
   353.76         2.2667
   353.90         2.2907
   354.04         2.3081
   354.18         2.3195
   354.32         2.3252
   354.46         2.3254
   354.60         2.3209
   354.74         2.3127
   354.88         2.3023
   355.02         2.2908
   355.16         2.2792
   355.30         2.2669
   355.44         2.2528
   355.58         2.2354
   355.72         2.2132
   355.86         2.1850
   356.00         2.1506
   356.14         2.1113
   356.28         2.0699
   356.42         2.0298
   356.56         1.9937
   356.70         1.9629
   356.84         1.9370
   356.98         1.9151
   357.12         1.8959
   357.26         1.8784
   357.40         1.8613
   357.54         1.8431
   357.68         1.8228
   357.82         1.8007
   357.96         1.7783
   358.10         1.7587
   358.24         1.7461
   358.38         1.7442
   358.52         1.7560
   358.66         1.7833
   358.80         1.8270
   358.94         1.8856
   359.08         1.9546
   359.22         2.0271
   359.36         2.0959
   359.50         2.1549
   359.64         2.2000
   359.78         2.2282
   359.92         2.2377
   360.06         2.2285
   360.20         2.2035
   360.34         2.1675
   360.48         2.1258
   360.62         2.0834
   360.76         2.0444
   360.90         2.0120
   361.04         1.9883
   361.18         1.9747
   361.32         1.9721
   361.46         1.9805
   361.60         1.9989
   361.74         2.0246
   361.88         2.0539
   362.02         2.0834
   362.16         2.1101
   362.30         2.1315
   362.44         2.1461
   362.58         2.1540
   362.72         2.1573
   362.86         2.1579
   363.00         2.1572
   363.14         2.1558
   363.28         2.1540
   363.42         2.1520
   363.56         2.1503
   363.70         2.1489
   363.84         2.1476
   363.98         2.1462
   364.12         2.1450
   364.26         2.1447
   364.40         2.1457
   364.54         2.1488
   364.68         2.1562
   364.82         2.1701
   364.96         2.1924
   365.10         2.2233
   365.24         2.2624
   365.38         2.3079
   365.52         2.3568
   365.66         2.4054
   365.80         2.4498
   365.94         2.4866
   366.08         2.5139
   366.22         2.5312
   366.36         2.5394
   366.50         2.5401
   366.64         2.5351
   366.78         2.5258
   366.92         2.5132
   367.06         2.4980
   367.20         2.4810
   367.34         2.4628
   367.48         2.4433
   367.62         2.4227
   367.76         2.4015
   367.90         2.3814
   368.04         2.3636
   368.18         2.3492
   368.32         2.3387
   368.46         2.3329
   368.60         2.3327
   368.74         2.3383
   368.88         2.3492
   369.02         2.3643
   369.16         2.3819
   369.30         2.3993
   369.44         2.4136
   369.58         2.4223
   369.72         2.4235
   369.86         2.4162
   370.00         2.4009
   370.14         2.3801
   370.28         2.3580
   370.42         2.3390
   370.56         2.3263
   370.70         2.3205
   370.84         2.3200
   370.98         2.3219
   371.12         2.3235
   371.26         2.3230
   371.40         2.3201
   371.54         2.3150
   371.68         2.3078
   371.82         2.2986
   371.96         2.2873
   372.10         2.2744
   372.24         2.2598
   372.38         2.2430
   372.52         2.2233
   372.66         2.2005
   372.80         2.1754
   372.94         2.1491
   373.08         2.1218
   373.22         2.0936
   373.36         2.0643
   373.50         2.0342
   373.64         2.0047
   373.78         1.9778
   373.92         1.9560
   374.06         1.9413
   374.20         1.9350
   374.34         1.9377
   374.48         1.9494
   374.62         1.9691
   374.76         1.9946
   374.90         2.0238
   375.04         2.0556
   375.18         2.0902
   375.32         2.1280
   375.46         2.1686
   375.60         2.2099
   375.74         2.2488
   375.88         2.2819
   376.02         2.3072
   376.16         2.3244
   376.30         2.3358
   376.44         2.3452
   376.58         2.3567
   376.72         2.3740
   376.86         2.3992
   377.00         2.4329
   377.14         2.4742
   377.28         2.5208
   377.42         2.5695
   377.56         2.6167
   377.70         2.6586
   377.84         2.6917
   377.98         2.7132
   378.12         2.7212
   378.26         2.7142
   378.40         2.6919
   378.54         2.6549
   378.68         2.6053
   378.82         2.5468
   378.96         2.4845
   379.10         2.4240
   379.24         2.3708
   379.38         2.3293
   379.52         2.3024
   379.66         2.2911
   379.80         2.2952
   379.94         2.3125
   380.08         2.3394
   380.22         2.3712
   380.36         2.4028
   380.50         2.4295
   380.64         2.4471
   380.78         2.4521
   380.92         2.4420
   381.06         2.4165
   381.20         2.3772
   381.34         2.3269
   381.48         2.2687
   381.62         2.2059
   381.76         2.1411
   381.90         2.0759
   382.04         2.0115
   382.18         1.9485
   382.32         1.8877
   382.46         1.8296
   382.60         1.7743
   382.74         1.7214
   382.88         1.6717
   383.02         1.6278
   383.16         1.5941
   383.30         1.5753
   383.44         1.5750
   383.58         1.5955
   383.72         1.6371
   383.86         1.6977
   384.00         1.7741
   384.14         1.8622
   384.28         1.9573
   384.42         2.0542
   384.56         2.1466
   384.70         2.2281
   384.84         2.2937
   384.98         2.3408
   385.12         2.3696
   385.26         2.3827
   385.40         2.3846
   385.54         2.3808
   385.68         2.3768
   385.82         2.3765
   385.96         2.3811
   386.10         2.3898
   386.24         2.4010
   386.38         2.4131
   386.52         2.4242
   386.66         2.4321
   386.80         2.4350
   386.94         2.4314
   387.08         2.4209
   387.22         2.4036
   387.36         2.3808
   387.50         2.3540
   387.64         2.3252
   387.78         2.2959
   387.92         2.2673
   388.06         2.2411
   388.20         2.2190
   388.34         2.2025
   388.48         2.1931
   388.62         2.1923
   388.76         2.2010
   388.90         2.2199
   389.04         2.2483
   389.18         2.2839
   389.32         2.3231
   389.46         2.3626
   389.60         2.3997
   389.74         2.4325
   389.88         2.4601
   390.02         2.4824
   390.16         2.5001
   390.30         2.5149
   390.44         2.5288
   390.58         2.5438
   390.72         2.5601
   390.86         2.5767
   391.00         2.5909
   391.14         2.5999
   391.28         2.6005
   391.42         2.5897
   391.56         2.5643
   391.70         2.5215
   391.84         2.4592
   391.98         2.3761
   392.12         2.2730
   392.26         2.1525
   392.40         2.0186
   392.54         1.8774
   392.68         1.7368
   392.82         1.6059
   392.96         1.4935
   393.10         1.4071
   393.24         1.3520
   393.38         1.3317
   393.52         1.3473
   393.66         1.3978
   393.80         1.4797
   393.94         1.5873
   394.08         1.7122
   394.22         1.8457
   394.36         1.9792
   394.50         2.1054
   394.64         2.2187
   394.78         2.3149
   394.92         2.3908
   395.06         2.4438
   395.20         2.4722
   395.34         2.4739
   395.48         2.4470
   395.62         2.3899
   395.76         2.3034
   395.90         2.1917
   396.04         2.0622
   396.18         1.9250
   396.32         1.7916
   396.46         1.6740
   396.60         1.5835
   396.74         1.5295
   396.88         1.5182
   397.02         1.5521
   397.16         1.6291
   397.30         1.7432
   397.44         1.8854
   397.58         2.0449
   397.72         2.2113
   397.86         2.3752
   398.00         2.5283
   398.14         2.6647
   398.28         2.7810
   398.42         2.8763
   398.56         2.9522
   398.70         3.0118
   398.84         3.0590
   398.98         3.0971
   399.12         3.1285
   399.26         3.1541
   399.40         3.1739
   399.54         3.1881
   399.68         3.1971
   399.82         3.2019
   399.96         3.2036
   400.10         3.2040
   400.24         3.2046
   400.38         3.2070
   400.52         3.2123
   400.66         3.2212
   400.80         3.2339
   400.94         3.2506
   401.08         3.2716
   401.22         3.2963
   401.36         3.3237
   401.50         3.3521
   401.64         3.3794
   401.78         3.4034
   401.92         3.4222
   402.06         3.4344
   402.20         3.4399
   402.34         3.4391
   402.48         3.4331
   402.62         3.4237
   402.76         3.4132
   402.90         3.4036
   403.04         3.3962
   403.18         3.3907
   403.32         3.3856
   403.46         3.3790
   403.60         3.3702
   403.74         3.3589
   403.88         3.3457
   404.02         3.3318
   404.16         3.3187
   404.30         3.3071
   404.44         3.2974
   404.58         3.2898
   404.72         3.2848
   404.86         3.2830
   405.00         3.2844
   405.14         3.2878
   405.28         3.2906
   405.42         3.2907
   405.56         3.2863
   405.70         3.2774
   405.84         3.2645
   405.98         3.2493
   406.12         3.2349
   406.26         3.2243
   406.40         3.2190
   406.54         3.2192
   406.68         3.2236
   406.82         3.2307
   406.96         3.2394
   407.10         3.2488
   407.24         3.2586
   407.38         3.2684
   407.52         3.2784
   407.66         3.2895
   407.80         3.3028
   407.94         3.3196
   408.08         3.3404
   408.22         3.3645
   408.36         3.3905
   408.50         3.4158
   408.64         3.4376
   408.78         3.4523
   408.92         3.4559
   409.06         3.4451
   409.20         3.4190
   409.34         3.3794
   409.48         3.3307
   409.62         3.2781
   409.76         3.2271
   409.90         3.1832
   410.04         3.1513
   410.18         3.1358
   410.32         3.1387
   410.46         3.1595
   410.60         3.1959
   410.74         3.2443
   410.88         3.3004
   411.02         3.3596
   411.16         3.4162
   411.30         3.4651
   411.44         3.5027
   411.58         3.5272
   411.72         3.5397
   411.86         3.5420
   412.00         3.5359
   412.14         3.5229
   412.28         3.5043
   412.42         3.4824
   412.56         3.4600
   412.70         3.4399
   412.84         3.4246
   412.98         3.4158
   413.12         3.4134
   413.26         3.4166
   413.40         3.4242
   413.54         3.4350
   413.68         3.4478
   413.82         3.4611
   413.96         3.4733
   414.10         3.4832
   414.24         3.4893
   414.38         3.4908
   414.52         3.4875
   414.66         3.4804
   414.80         3.4714
   414.94         3.4631
   415.08         3.4578
   415.22         3.4570
   415.36         3.4608
   415.50         3.4681
   415.64         3.4770
   415.78         3.4858
   415.92         3.4935
   416.06         3.4990
   416.20         3.5013
   416.34         3.4990
   416.48         3.4916
   416.62         3.4793
   416.76         3.4635
   416.90         3.4456
   417.04         3.4275
   417.18         3.4107
   417.32         3.3964
   417.46         3.3855
   417.60         3.3778
   417.74         3.3725
   417.88         3.3689
   418.02         3.3662
   418.16         3.3643
   418.30         3.3633
   418.44         3.3633
   418.58         3.3635
   418.72         3.3627
   418.86         3.3600
   419.00         3.3550
   419.14         3.3478
   419.28         3.3390
   419.42         3.3296
   419.56         3.3209
   419.70         3.3147
   419.84         3.3126
   419.98         3.3155
   420.12         3.3238
   420.26         3.3374
   420.40         3.3554
   420.54         3.3763
   420.68         3.3987
   420.82         3.4203
   420.96         3.4389
   421.10         3.4520
   421.24         3.4571
   421.38         3.4520
   421.52         3.4353
   421.66         3.4073
   421.80         3.3702
   421.94         3.3285
   422.08         3.2866
   422.22         3.2483
   422.36         3.2167
   422.50         3.1932
   422.64         3.1790
   422.78         3.1744
   422.92         3.1790
   423.06         3.1919
   423.20         3.2118
   423.34         3.2367
   423.48         3.2638
   423.62         3.2894
   423.76         3.3094
   423.90         3.3211
   424.04         3.3236
   424.18         3.3183
   424.32         3.3077
   424.46         3.2945
   424.60         3.2804
   424.74         3.2659
   424.88         3.2506
   425.02         3.2348
   425.16         3.2194
   425.30         3.2061
   425.44         3.1967
   425.58         3.1920
   425.72         3.1921
   425.86         3.1956
   426.00         3.1998
   426.14         3.2016
   426.28         3.1983
   426.42         3.1891
   426.56         3.1753
   426.70         3.1591
   426.84         3.1424
   426.98         3.1268
   427.12         3.1142
   427.26         3.1064
   427.40         3.1045
   427.54         3.1088
   427.68         3.1190
   427.82         3.1339
   427.96         3.1508
   428.10         3.1665
   428.24         3.1781
   428.38         3.1830
   428.52         3.1793
   428.66         3.1659
   428.80         3.1420
   428.94         3.1078
   429.08         3.0641
   429.22         3.0117
   429.36         2.9515
   429.50         2.8847
   429.64         2.8126
   429.78         2.7369
   429.92         2.6598
   430.06         2.5841
   430.20         2.5139
   430.34         2.4550
   430.48         2.4139
   430.62         2.3970
   430.76         2.4095
   430.90         2.4536
   431.04         2.5273
   431.18         2.6246
   431.32         2.7362
   431.46         2.8525
   431.60         2.9646
   431.74         3.0665
   431.88         3.1540
   432.02         3.2248
   432.16         3.2780
   432.30         3.3145
   432.44         3.3368
   432.58         3.3479
   432.72         3.3507
   432.86         3.3465
   433.00         3.3360
   433.14         3.3195
   433.28         3.2972
   433.42         3.2696
   433.56         3.2376
   433.70         3.2028
   433.84         3.1681
   433.98         3.1376
   434.12         3.1150
   434.26         3.1039
   434.40         3.1061
   434.54         3.1218
   434.68         3.1488
   434.82         3.1837
   434.96         3.2220
   435.10         3.2591
   435.24         3.2913
   435.38         3.3171
   435.52         3.3365
   435.66         3.3516
   435.80         3.3648
   435.94         3.3781
   436.08         3.3920
   436.22         3.4062
   436.36         3.4191
   436.50         3.4288
   436.64         3.4341
   436.78         3.4352
   436.92         3.4333
   437.06         3.4292
   437.20         3.4216
   437.34         3.4089
   437.48         3.3902
   437.62         3.3659
   437.76         3.3375
   437.90         3.3071
   438.04         3.2766
   438.18         3.2484
   438.32         3.2246
   438.46         3.2073
   438.60         3.1986
   438.74         3.1994
   438.88         3.2101
   439.02         3.2299
   439.16         3.2571
   439.30         3.2884
   439.44         3.3197
   439.58         3.3468
   439.72         3.3667
   439.86         3.3793
   440.00         3.3870
   440.14         3.3935
   440.28         3.4016
   440.42         3.4124
   440.56         3.4265
   440.70         3.4444
   440.84         3.4667
   440.98         3.4930
   441.12         3.5225
   441.26         3.5536
   441.40         3.5846
   441.54         3.6137
   441.68         3.6394
   441.82         3.6606
   441.96         3.6769
   442.10         3.6889
   442.24         3.6972
   442.38         3.7021
   442.52         3.7037
   442.66         3.7020
   442.80         3.6969
   442.94         3.6887
   443.08         3.6778
   443.22         3.6658
   443.36         3.6545
   443.50         3.6457
   443.64         3.6406
   443.78         3.6395
   443.92         3.6426
   444.06         3.6496
   444.20         3.6588
   444.34         3.6681
   444.48         3.6750
   444.62         3.6773
   444.76         3.6736
   444.90         3.6633
   445.04         3.6473
   445.18         3.6276
   445.32         3.6064
   445.46         3.5855
   445.60         3.5667
   445.74         3.5517
   445.88         3.5420
   446.02         3.5392
   446.16         3.5446
   446.30         3.5584
   446.44         3.5798
   446.58         3.6069
   446.72         3.6375
   446.86         3.6691
   447.00         3.6992
   447.14         3.7259
   447.28         3.7477
   447.42         3.7644
   447.56         3.7760
   447.70         3.7826
   447.84         3.7843
   447.98         3.7817
   448.12         3.7759
   448.26         3.7680
   448.40         3.7594
   448.54         3.7518
   448.68         3.7467
   448.82         3.7454
   448.96         3.7479
   449.10         3.7538
   449.24         3.7626
   449.38         3.7732
   449.52         3.7853
   449.66         3.7986
   449.80         3.8137
   449.94         3.8307
   450.08         3.8491
   450.22         3.8676
   450.36         3.8846
   450.50         3.8991
   450.64         3.9101
   450.78         3.9171
   450.92         3.9201
   451.06         3.9193
   451.20         3.9150
   451.34         3.9072
   451.48         3.8954
   451.62         3.8794
   451.76         3.8591
   451.90         3.8347
   452.04         3.8067
   452.18         3.7760
   452.32         3.7432
   452.46         3.7096
   452.60         3.6768
   452.74         3.6473
   452.88         3.6231
   453.02         3.6062
   453.16         3.5979
   453.30         3.5989
   453.44         3.6088
   453.58         3.6259
   453.72         3.6473
   453.86         3.6698
   454.00         3.6909
   454.14         3.7088
   454.28         3.7228
   454.42         3.7325
   454.56         3.7385
   454.70         3.7417
   454.84         3.7439
   454.98         3.7473
   455.12         3.7530
   455.26         3.7615
   455.40         3.7724
   455.54         3.7845
   455.68         3.7971
   455.82         3.8091
   455.96         3.8195
   456.10         3.8273
   456.24         3.8325
   456.38         3.8355
   456.52         3.8375
   456.66         3.8394
   456.80         3.8418
   456.94         3.8446
   457.08         3.8476
   457.22         3.8506
   457.36         3.8533
   457.50         3.8553
   457.64         3.8566
   457.78         3.8566
   457.92         3.8556
   458.06         3.8537
   458.20         3.8512
   458.34         3.8480
   458.48         3.8438
   458.62         3.8386
   458.76         3.8328
   458.90         3.8269
   459.04         3.8212
   459.18         3.8160
   459.32         3.8113
   459.46         3.8077
   459.60         3.8058
   459.74         3.8061
   459.88         3.8091
   460.02         3.8145
   460.16         3.8221
   460.30         3.8313
   460.44         3.8408
   460.58         3.8493
   460.72         3.8558
   460.86         3.8603
   461.00         3.8639
   461.14         3.8677
