# File BD+61367
# Wavelength [nm]    Normalized Amplitude
   349.70         3.1772
   349.84         3.1594
   349.98         3.1453
   350.12         3.1361
   350.26         3.1315
   350.40         3.1307
   350.54         3.1331
   350.68         3.1378
   350.82         3.1433
   350.96         3.1481
   351.10         3.1501
   351.24         3.1481
   351.38         3.1433
   351.52         3.1378
   351.66         3.1331
   351.80         3.1307
   351.94         3.1315
   352.08         3.1361
   352.22         3.1453
   352.36         3.1594
   352.50         3.1772
   352.64         3.1960
   352.78         3.2123
   352.92         3.2245
   353.06         3.2324
   353.20         3.2377
   353.34         3.2448
   353.48         3.2590
   353.62         3.2838
   353.76         3.3205
   353.90         3.3686
   354.04         3.4258
   354.18         3.4872
   354.32         3.5469
   354.46         3.5992
   354.60         3.6399
   354.74         3.6664
   354.88         3.6770
   355.02         3.6691
   355.16         3.6420
   355.30         3.5978
   355.44         3.5413
   355.58         3.4785
   355.72         3.4147
   355.86         3.3541
   356.00         3.2987
   356.14         3.2489
   356.28         3.2050
   356.42         3.1686
   356.56         3.1413
   356.70         3.1237
   356.84         3.1157
   356.98         3.1153
   357.12         3.1194
   357.26         3.1251
   357.40         3.1292
   357.54         3.1293
   357.68         3.1250
   357.82         3.1177
   357.96         3.1104
   358.10         3.1056
   358.24         3.1044
   358.38         3.1078
   358.52         3.1174
   358.66         3.1345
   358.80         3.1599
   358.94         3.1925
   359.08         3.2295
   359.22         3.2668
   359.36         3.2999
   359.50         3.3241
   359.64         3.3354
   359.78         3.3324
   359.92         3.3173
   360.06         3.2936
   360.20         3.2656
   360.34         3.2365
   360.48         3.2094
   360.62         3.1867
   360.76         3.1693
   360.90         3.1580
   361.04         3.1546
   361.18         3.1614
   361.32         3.1794
   361.46         3.2078
   361.60         3.2456
   361.74         3.2907
   361.88         3.3386
   362.02         3.3835
   362.16         3.4205
   362.30         3.4469
   362.44         3.4620
   362.58         3.4669
   362.72         3.4637
   362.86         3.4548
   363.00         3.4426
   363.14         3.4302
   363.28         3.4189
   363.42         3.4092
   363.56         3.4013
   363.70         3.3962
   363.84         3.3938
   363.98         3.3934
   364.12         3.3941
   364.26         3.3955
   364.40         3.3971
   364.54         3.3990
   364.68         3.4035
   364.82         3.4145
   364.96         3.4356
   365.10         3.4682
   365.24         3.5122
   365.38         3.5653
   365.52         3.6228
   365.66         3.6794
   365.80         3.7297
   365.94         3.7701
   366.08         3.7986
   366.22         3.8148
   366.36         3.8193
   366.50         3.8124
   366.64         3.7950
   366.78         3.7694
   366.92         3.7392
   367.06         3.7081
   367.20         3.6791
   367.34         3.6536
   367.48         3.6316
   367.62         3.6120
   367.76         3.5936
   367.90         3.5761
   368.04         3.5593
   368.18         3.5434
   368.32         3.5287
   368.46         3.5158
   368.60         3.5060
   368.74         3.5008
   368.88         3.5019
   369.02         3.5100
   369.16         3.5246
   369.30         3.5434
   369.44         3.5627
   369.58         3.5796
   369.72         3.5919
   369.86         3.5982
   370.00         3.5984
   370.14         3.5942
   370.28         3.5886
   370.42         3.5862
   370.56         3.5912
   370.70         3.6065
   370.84         3.6315
   370.98         3.6631
   371.12         3.6984
   371.26         3.7356
   371.40         3.7730
   371.54         3.8078
   371.68         3.8370
   371.82         3.8582
   371.96         3.8704
   372.10         3.8740
   372.24         3.8707
   372.38         3.8612
   372.52         3.8455
   372.66         3.8242
   372.80         3.8004
   372.94         3.7780
   373.08         3.7605
   373.22         3.7491
   373.36         3.7436
   373.50         3.7425
   373.64         3.7441
   373.78         3.7469
   373.92         3.7490
   374.06         3.7487
   374.20         3.7456
   374.34         3.7412
   374.48         3.7376
   374.62         3.7374
   374.76         3.7429
   374.90         3.7565
   375.04         3.7808
   375.18         3.8179
   375.32         3.8678
   375.46         3.9275
   375.60         3.9911
   375.74         4.0500
   375.88         4.0960
   376.02         4.1239
   376.16         4.1323
   376.30         4.1235
   376.44         4.1035
   376.58         4.0818
   376.72         4.0703
   376.86         4.0804
   377.00         4.1203
   377.14         4.1927
   377.28         4.2951
   377.42         4.4203
   377.56         4.5584
   377.70         4.6982
   377.84         4.8274
   377.98         4.9342
   378.12         5.0080
   378.26         5.0418
   378.40         5.0322
   378.54         4.9795
   378.68         4.8882
   378.82         4.7665
   378.96         4.6256
   379.10         4.4800
   379.24         4.3466
   379.38         4.2404
   379.52         4.1723
   379.66         4.1488
   379.80         4.1739
   379.94         4.2479
   380.08         4.3663
   380.22         4.5195
   380.36         4.6933
   380.50         4.8719
   380.64         5.0396
   380.78         5.1832
   380.92         5.2921
   381.06         5.3604
   381.20         5.3871
   381.34         5.3759
   381.48         5.3330
   381.62         5.2649
   381.76         5.1780
   381.90         5.0780
   382.04         4.9687
   382.18         4.8516
   382.32         4.7272
   382.46         4.5956
   382.60         4.4566
   382.74         4.3111
   382.88         4.1639
   383.02         4.0242
   383.16         3.9042
   383.30         3.8152
   383.44         3.7655
   383.58         3.7602
   383.72         3.8021
   383.86         3.8902
   384.00         4.0198
   384.14         4.1836
   384.28         4.3725
   384.42         4.5765
   384.56         4.7838
   384.70         4.9819
   384.84         5.1600
   384.98         5.3118
   385.12         5.4360
   385.26         5.5342
   385.40         5.6096
   385.54         5.6665
   385.68         5.7088
   385.82         5.7395
   385.96         5.7610
   386.10         5.7749
   386.24         5.7818
   386.38         5.7813
   386.52         5.7724
   386.66         5.7549
   386.80         5.7291
   386.94         5.6949
   387.08         5.6512
   387.22         5.5967
   387.36         5.5294
   387.50         5.4478
   387.64         5.3503
   387.78         5.2357
   387.92         5.1043
   388.06         4.9598
   388.20         4.8094
   388.34         4.6615
   388.48         4.5239
   388.62         4.4045
   388.76         4.3108
   388.90         4.2496
   389.04         4.2261
   389.18         4.2426
   389.32         4.2977
   389.46         4.3860
   389.60         4.4991
   389.74         4.6282
   389.88         4.7647
   390.02         4.9009
   390.16         5.0306
   390.30         5.1499
   390.44         5.2572
   390.58         5.3526
   390.72         5.4360
   390.86         5.5056
   391.00         5.5581
   391.14         5.5913
   391.28         5.6046
   391.42         5.5975
   391.56         5.5687
   391.70         5.5151
   391.84         5.4331
   391.98         5.3187
   392.12         5.1680
   392.26         4.9793
   392.40         4.7544
   392.54         4.5003
   392.68         4.2291
   392.82         3.9575
   392.96         3.7053
   393.10         3.4924
   393.24         3.3358
   393.38         3.2475
   393.52         3.2337
   393.66         3.2945
   393.80         3.4237
   393.94         3.6094
   394.08         3.8354
   394.22         4.0823
   394.36         4.3292
   394.50         4.5565
   394.64         4.7489
   394.78         4.8984
   394.92         5.0025
   395.06         5.0627
   395.20         5.0819
   395.34         5.0624
   395.48         5.0050
   395.62         4.9088
   395.76         4.7734
   395.90         4.6020
   396.04         4.4023
   396.18         4.1878
   396.32         3.9753
   396.46         3.7829
   396.60         3.6278
   396.74         3.5246
   396.88         3.4834
   397.02         3.5093
   397.16         3.6020
   397.30         3.7562
   397.44         3.9609
   397.58         4.2008
   397.72         4.4580
   397.86         4.7146
   398.00         4.9559
   398.14         5.1713
   398.28         5.3552
   398.42         5.5063
   398.56         5.6269
   398.70         5.7217
   398.84         5.7965
   398.98         5.8566
   399.12         5.9063
   399.26         5.9478
   399.40         5.9816
   399.54         6.0068
   399.68         6.0232
   399.82         6.0312
   399.96         6.0318
   400.10         6.0273
   400.24         6.0200
   400.38         6.0130
   400.52         6.0091
   400.66         6.0104
   400.80         6.0177
   400.94         6.0302
   401.08         6.0472
   401.22         6.0690
   401.36         6.0962
   401.50         6.1286
   401.64         6.1642
   401.78         6.1990
   401.92         6.2291
   402.06         6.2518
   402.20         6.2658
   402.34         6.2708
   402.48         6.2680
   402.62         6.2592
   402.76         6.2469
   402.90         6.2336
   403.04         6.2216
   403.18         6.2113
   403.32         6.2022
   403.46         6.1937
   403.60         6.1856
   403.74         6.1787
   403.88         6.1733
   404.02         6.1679
   404.16         6.1593
   404.30         6.1444
   404.44         6.1218
   404.58         6.0920
   404.72         6.0574
   404.86         6.0208
   405.00         5.9858
   405.14         5.9546
   405.28         5.9285
   405.42         5.9083
   405.56         5.8952
   405.70         5.8902
   405.84         5.8937
   405.98         5.9051
   406.12         5.9238
   406.26         5.9480
   406.40         5.9735
   406.54         5.9946
   406.68         6.0073
   406.82         6.0097
   406.96         6.0018
   407.10         5.9845
   407.24         5.9586
   407.38         5.9260
   407.52         5.8885
   407.66         5.8489
   407.80         5.8107
   407.94         5.7771
   408.08         5.7508
   408.22         5.7323
   408.36         5.7193
   408.50         5.7067
   408.64         5.6883
   408.78         5.6569
   408.92         5.6042
   409.06         5.5243
   409.20         5.4163
   409.34         5.2846
   409.48         5.1371
   409.62         4.9841
   409.76         4.8382
   409.90         4.7123
   410.04         4.6184
   410.18         4.5653
   410.32         4.5589
   410.46         4.6001
   410.60         4.6853
   410.74         4.8070
   410.88         4.9547
   411.02         5.1165
   411.16         5.2798
   411.30         5.4331
   411.44         5.5675
   411.58         5.6783
   411.72         5.7657
   411.86         5.8324
   412.00         5.8806
   412.14         5.9126
   412.28         5.9310
   412.42         5.9387
   412.56         5.9396
   412.70         5.9382
   412.84         5.9391
   412.98         5.9453
   413.12         5.9579
   413.26         5.9765
   413.40         6.0000
   413.54         6.0268
   413.68         6.0548
   413.82         6.0821
   413.96         6.1080
   414.10         6.1327
   414.24         6.1562
   414.38         6.1776
   414.52         6.1959
   414.66         6.2111
   414.80         6.2242
   414.94         6.2367
   415.08         6.2510
   415.22         6.2695
   415.36         6.2935
   415.50         6.3224
   415.64         6.3538
   415.78         6.3845
   415.92         6.4109
   416.06         6.4292
   416.20         6.4360
   416.34         6.4292
   416.48         6.4077
   416.62         6.3722
   416.76         6.3245
   416.90         6.2671
   417.04         6.2032
   417.18         6.1365
   417.32         6.0710
   417.46         6.0108
   417.60         5.9602
   417.74         5.9228
   417.88         5.9006
   418.02         5.8930
   418.16         5.8975
   418.30         5.9109
   418.44         5.9296
   418.58         5.9496
   418.72         5.9678
   418.86         5.9827
   419.00         5.9939
   419.14         6.0015
   419.28         6.0059
   419.42         6.0080
   419.56         6.0075
   419.70         6.0048
   419.84         6.0015
   419.98         6.0012
   420.12         6.0070
   420.26         6.0203
   420.40         6.0403
   420.54         6.0642
   420.68         6.0887
   420.82         6.1106
   420.96         6.1273
   421.10         6.1359
   421.24         6.1342
   421.38         6.1203
   421.52         6.0938
   421.66         6.0561
   421.80         6.0108
   421.94         5.9634
   422.08         5.9192
   422.22         5.8828
   422.36         5.8571
   422.50         5.8439
   422.64         5.8432
   422.78         5.8533
   422.92         5.8720
   423.06         5.8973
   423.20         5.9271
   423.34         5.9589
   423.48         5.9895
   423.62         6.0147
   423.76         6.0309
   423.90         6.0365
   424.04         6.0327
   424.18         6.0234
   424.32         6.0135
   424.46         6.0070
   424.60         6.0051
   424.74         6.0062
   424.88         6.0081
   425.02         6.0093
   425.16         6.0098
   425.30         6.0107
   425.44         6.0130
   425.58         6.0165
   425.72         6.0201
   425.86         6.0217
   426.00         6.0185
   426.14         6.0087
   426.28         5.9930
   426.42         5.9750
   426.56         5.9594
   426.70         5.9500
   426.84         5.9488
   426.98         5.9552
   427.12         5.9672
   427.26         5.9826
   427.40         5.9998
   427.54         6.0175
   427.68         6.0336
   427.82         6.0455
   427.96         6.0499
   428.10         6.0440
   428.24         6.0262
   428.38         5.9966
   428.52         5.9560
   428.66         5.9065
   428.80         5.8510
   428.94         5.7929
   429.08         5.7340
   429.22         5.6754
   429.36         5.6173
   429.50         5.5600
   429.64         5.5046
   429.78         5.4533
   429.92         5.4091
   430.06         5.3745
   430.20         5.3505
   430.34         5.3385
   430.48         5.3403
   430.62         5.3573
   430.76         5.3897
   430.90         5.4358
   431.04         5.4917
   431.18         5.5516
   431.32         5.6086
   431.46         5.6564
   431.60         5.6911
   431.74         5.7115
   431.88         5.7174
   432.02         5.7089
   432.16         5.6871
   432.30         5.6539
   432.44         5.6108
   432.58         5.5570
   432.72         5.4894
   432.86         5.4041
   433.00         5.2989
   433.14         5.1750
   433.28         5.0371
   433.42         4.8929
   433.56         4.7518
   433.70         4.6242
   433.84         4.5207
   433.98         4.4503
   434.12         4.4206
   434.26         4.4362
   434.40         4.4971
   434.54         4.5992
   434.68         4.7348
   434.82         4.8941
   434.96         5.0652
   435.10         5.2366
   435.24         5.3984
   435.38         5.5448
   435.52         5.6733
   435.66         5.7846
   435.80         5.8810
   435.94         5.9651
   436.08         6.0382
   436.22         6.1007
   436.36         6.1516
   436.50         6.1901
   436.64         6.2161
   436.78         6.2315
   436.92         6.2392
   437.06         6.2409
   437.20         6.2362
   437.34         6.2235
   437.48         6.2020
   437.62         6.1722
   437.76         6.1360
   437.90         6.0958
   438.04         6.0541
   438.18         6.0130
   438.32         5.9748
   438.46         5.9424
   438.60         5.9189
   438.74         5.9057
   438.88         5.9025
   439.02         5.9082
   439.16         5.9222
   439.30         5.9429
   439.44         5.9681
   439.58         5.9945
   439.72         6.0184
   439.86         6.0373
   440.00         6.0518
   440.14         6.0638
   440.28         6.0748
   440.42         6.0858
   440.56         6.0971
   440.70         6.1086
   440.84         6.1202
   440.98         6.1324
   441.12         6.1456
   441.26         6.1596
   441.40         6.1737
   441.54         6.1864
   441.68         6.1967
   441.82         6.2033
   441.96         6.2043
   442.10         6.1978
   442.24         6.1831
   442.38         6.1608
   442.52         6.1331
   442.66         6.1035
   442.80         6.0755
   442.94         6.0522
   443.08         6.0351
   443.22         6.0246
   443.36         6.0199
   443.50         6.0200
   443.64         6.0231
   443.78         6.0277
   443.92         6.0323
   444.06         6.0355
   444.20         6.0360
   444.34         6.0318
   444.48         6.0218
   444.62         6.0060
   444.76         5.9861
   444.90         5.9650
   445.04         5.9457
   445.18         5.9298
   445.32         5.9183
   445.46         5.9110
   445.60         5.9067
   445.74         5.9042
   445.88         5.9030
   446.02         5.9042
   446.16         5.9088
   446.30         5.9178
   446.44         5.9318
   446.58         5.9509
   446.72         5.9741
   446.86         5.9988
   447.00         6.0217
   447.14         6.0409
   447.28         6.0563
   447.42         6.0687
   447.56         6.0783
   447.70         6.0838
   447.84         6.0842
   447.98         6.0792
   448.12         6.0698
   448.26         6.0576
   448.40         6.0451
   448.54         6.0358
   448.68         6.0331
   448.82         6.0389
   448.96         6.0538
   449.10         6.0771
   449.24         6.1071
   449.38         6.1419
   449.52         6.1794
   449.66         6.2182
   449.80         6.2580
   449.94         6.2981
   450.08         6.3353
   450.22         6.3662
   450.36         6.3877
   450.50         6.3984
   450.64         6.3979
   450.78         6.3877
   450.92         6.3702
   451.06         6.3481
   451.20         6.3244
   451.34         6.3014
   451.48         6.2803
   451.62         6.2616
   451.76         6.2457
   451.90         6.2322
   452.04         6.2192
   452.18         6.2040
   452.32         6.1842
   452.46         6.1590
   452.60         6.1297
   452.74         6.0983
   452.88         6.0668
   453.02         6.0368
   453.16         6.0095
   453.30         5.9870
   453.44         5.9711
   453.58         5.9620
   453.72         5.9579
   453.86         5.9562
   454.00         5.9539
   454.14         5.9481
   454.28         5.9371
   454.42         5.9209
   454.56         5.9012
   454.70         5.8814
   454.84         5.8664
   454.98         5.8604
   455.12         5.8663
   455.26         5.8849
   455.40         5.9149
   455.54         5.9536
   455.68         5.9988
   455.82         6.0485
   455.96         6.0999
   456.10         6.1492
   456.24         6.1925
   456.38         6.2271
   456.52         6.2525
   456.66         6.2693
   456.80         6.2785
   456.94         6.2811
   457.08         6.2783
   457.22         6.2706
   457.36         6.2576
   457.50         6.2383
   457.64         6.2125
   457.78         6.1811
   457.92         6.1462
   458.06         6.1092
   458.20         6.0713
   458.34         6.0334
   458.48         5.9960
   458.62         5.9594
   458.76         5.9252
   458.90         5.8958
   459.04         5.8735
   459.18         5.8597
   459.32         5.8561
   459.46         5.8634
   459.60         5.8818
   459.74         5.9105
   459.88         5.9479
   460.02         5.9920
   460.16         6.0411
   460.30         6.0927
   460.44         6.1438
   460.58         6.1912
   460.72         6.2321
   460.86         6.2651
   461.00         6.2897
   461.14         6.3060
