# File BD+61220
# Wavelength [nm]    Normalized Amplitude
   349.70         156.3678
   349.84         156.2525
   349.98         156.0488
   350.12         155.7995
   350.26         155.5517
   350.40         155.4156
   350.54         155.4110
   350.68         155.3976
   350.82         155.2655
   350.96         155.0733
   351.10         154.9827
   351.24         155.0733
   351.38         155.2655
   351.52         155.3976
   351.66         155.4110
   351.80         155.4156
   351.94         155.5517
   352.08         155.7995
   352.22         156.0488
   352.36         156.2525
   352.50         156.3678
   352.64         156.3204
   352.78         156.0556
   352.92         155.6402
   353.06         155.2325
   353.20         154.8695
   353.34         154.5070
   353.48         154.1632
   353.62         153.9008
   353.76         153.7774
   353.90         153.7540
   354.04         153.7002
   354.18         153.5614
   354.32         153.4007
   354.46         153.2259
   354.60         152.9014
   354.74         152.2245
   354.88         151.0908
   355.02         149.6396
   355.16         148.0916
   355.30         146.6104
   355.44         145.4068
   355.58         144.6972
   355.72         144.5687
   355.86         144.9297
   356.00         145.6955
   356.14         146.8599
   356.28         148.3677
   356.42         150.0509
   356.56         151.6432
   356.70         152.9105
   356.84         153.7734
   356.98         154.2009
   357.12         154.1563
   357.26         153.7104
   357.40         153.0482
   357.54         152.4042
   357.68         151.9877
   357.82         151.8592
   357.96         152.0146
   358.10         152.4873
   358.24         153.2487
   358.38         154.1986
   358.52         155.2258
   358.66         156.2728
   358.80         157.1917
   358.94         157.7666
   359.08         157.9376
   359.22         157.7696
   359.36         157.3502
   359.50         156.8044
   359.64         156.2988
   359.78         155.9629
   359.92         155.8573
   360.06         155.9508
   360.20         156.1214
   360.34         156.2170
   360.48         156.0889
   360.62         155.6181
   360.76         154.7427
   360.90         153.4540
   361.04         151.8279
   361.18         150.0515
   361.32         148.3574
   361.46         146.9196
   361.60         145.9506
   361.74         145.6764
   361.88         146.1149
   362.02         147.1373
   362.16         148.6361
   362.30         150.5044
   362.44         152.4973
   362.58         154.3070
   362.72         155.7151
   362.86         156.5791
   363.00         156.7985
   363.14         156.3479
   363.28         155.2951
   363.42         153.7954
   363.56         152.1253
   363.70         150.6219
   363.84         149.5188
   363.98         148.8584
   364.12         148.5813
   364.26         148.6744
   364.40         149.1084
   364.54         149.7846
   364.68         150.6047
   364.82         151.4515
   364.96         152.1913
   365.10         152.7351
   365.24         153.1057
   365.38         153.3668
   365.52         153.4824
   365.66         153.3782
   365.80         153.1086
   365.94         152.8197
   366.08         152.6290
   366.22         152.6085
   366.36         152.7325
   366.50         152.8754
   366.64         152.9340
   366.78         152.9240
   366.92         152.9358
   367.06         153.0168
   367.20         153.1486
   367.34         153.3005
   367.48         153.4772
   367.62         153.7441
   367.76         154.1734
   367.90         154.7712
   368.04         155.5118
   368.18         156.3934
   368.32         157.4220
   368.46         158.5550
   368.60         159.6901
   368.74         160.7444
   368.88         161.6677
   369.02         162.4005
   369.16         162.9216
   369.30         163.2957
   369.44         163.6132
   369.58         163.9035
   369.72         164.1675
   369.86         164.4269
   370.00         164.7244
   370.14         165.1533
   370.28         165.8536
   370.42         166.9364
   370.56         168.4250
   370.70         170.2440
   370.84         172.2126
   370.98         174.1339
   371.12         175.9294
   371.26         177.6155
   371.40         179.2066
   371.54         180.6928
   371.68         182.0713
   371.82         183.3345
   371.96         184.4151
   372.10         185.1602
   372.24         185.4058
   372.38         185.1232
   372.52         184.4478
   372.66         183.6172
   372.80         182.9235
   372.94         182.6611
   373.08         183.0605
   373.22         184.2511
   373.36         186.2557
   373.50         188.9565
   373.64         192.0832
   373.78         195.2651
   373.92         198.0824
   374.06         200.1780
   374.20         201.3613
   374.34         201.5876
   374.48         200.9077
   374.62         199.4951
   374.76         197.6981
   374.90         196.0250
   375.04         195.0616
   375.18         195.2471
   375.32         196.6997
   375.46         199.2413
   375.60         202.4768
   375.74         205.8698
   375.88         208.8316
   376.02         210.8515
   376.16         211.6303
   376.30         211.1807
   376.44         209.8397
   376.58         208.1348
   376.72         206.6267
   376.86         205.8068
   377.00         205.9962
   377.14         207.3176
   377.28         209.7774
   377.42         213.2831
   377.56         217.5889
   377.70         222.2945
   377.84         226.8962
   377.98         230.9442
   378.12         234.1200
   378.26         236.2003
   378.40         237.0188
   378.54         236.4403
   378.68         234.4468
   378.82         231.2264
   378.96         227.1466
   379.10         222.6820
   379.24         218.3423
   379.38         214.5933
   379.52         211.7927
   379.66         210.1648
   379.80         209.8066
   379.94         210.7150
   380.08         212.8092
   380.22         215.9060
   380.36         219.7021
   380.50         223.8181
   380.64         227.8386
   380.78         231.3265
   380.92         233.9450
   381.06         235.5555
   381.20         236.2150
   381.34         236.1592
   381.48         235.6938
   381.62         235.0320
   381.76         234.2291
   381.90         233.1898
   382.04         231.7138
   382.18         229.5741
   382.32         226.5801
   382.46         222.6512
   382.60         217.8913
   382.74         212.5817
   382.88         207.1127
   383.02         201.9490
   383.16         197.5778
   383.30         194.4363
   383.44         192.8677
   383.58         193.0757
   383.72         195.0728
   383.86         198.6681
   384.00         203.5039
   384.14         209.0898
   384.28         214.8560
   384.42         220.2292
   384.56         224.7305
   384.70         228.0816
   384.84         230.2263
   384.98         231.2797
   385.12         231.5094
   385.26         231.2630
   385.40         230.8344
   385.54         230.4039
   385.68         230.0252
   385.82         229.6714
   385.96         229.3180
   386.10         228.9297
   386.24         228.4294
   386.38         227.7236
   386.52         226.7463
   386.66         225.4924
   386.80         224.0052
   386.94         222.3560
   387.08         220.6309
   387.22         218.9032
   387.36         217.1767
   387.50         215.3403
   387.64         213.1934
   387.78         210.5675
   387.92         207.4169
   388.06         203.8139
   388.20         199.9320
   388.34         196.0338
   388.48         192.4817
   388.62         189.6761
   388.76         187.9483
   388.90         187.5447
   389.04         188.6301
   389.18         191.2886
   389.32         195.4469
   389.46         200.7813
   389.60         206.7881
   389.74         212.9143
   389.88         218.6250
   390.02         223.4640
   390.16         227.1250
   390.30         229.4905
   390.44         230.6356
   390.58         230.7562
   390.72         230.0784
   390.86         228.8426
   391.00         227.2984
   391.14         225.6619
   391.28         224.0773
   391.42         222.6384
   391.56         221.4247
   391.70         220.4744
   391.84         219.7500
   391.98         219.1209
   392.12         218.3979
   392.26         217.4299
   392.40         216.1631
   392.54         214.6530
   392.68         213.0509
   392.82         211.5504
   392.96         210.3150
   393.10         209.4574
   393.24         209.0687
   393.38         209.2204
   393.52         209.9367
   393.66         211.1888
   393.80         212.9022
   393.94         214.9407
   394.08         217.1088
   394.22         219.1803
   394.36         220.9376
   394.50         222.2141
   394.64         222.9187
   394.78         223.0571
   394.92         222.7250
   395.06         222.0518
   395.20         221.1219
   395.34         219.8999
   395.48         218.2093
   395.62         215.8032
   395.76         212.4954
   395.90         208.2710
   396.04         203.3061
   396.18         197.9337
   396.32         192.5800
   396.46         187.6759
   396.60         183.6074
   396.74         180.7123
   396.88         179.2307
   397.02         179.2597
   397.16         180.7531
   397.30         183.5371
   397.44         187.3304
   397.58         191.7346
   397.72         196.2674
   397.86         200.4654
   398.00         203.9694
   398.14         206.5799
   398.28         208.3007
   398.42         209.3066
   398.56         209.8476
   398.70         210.1549
   398.84         210.3822
   398.98         210.5830
   399.12         210.7217
   399.26         210.7188
   399.40         210.4974
   399.54         210.0020
   399.68         209.2152
   399.82         208.1643
   399.96         206.9137
   400.10         205.5525
   400.24         204.1663
   400.38         202.8409
   400.52         201.6723
   400.66         200.7425
   400.80         200.1155
   400.94         199.8229
   401.08         199.8157
   401.22         199.9684
   401.36         200.1222
   401.50         200.1200
   401.64         199.8456
   401.78         199.2497
   401.92         198.3556
   402.06         197.2548
   402.20         196.0874
   402.34         195.0166
   402.48         194.1858
   402.62         193.6946
   402.76         193.5935
   402.90         193.8696
   403.04         194.4715
   403.18         195.3327
   403.32         196.3624
   403.46         197.4475
   403.60         198.4594
   403.74         199.2829
   403.88         199.8514
   404.02         200.1523
   404.16         200.2239
   404.30         200.1324
   404.44         199.9427
   404.58         199.7110
   404.72         199.4703
   404.86         199.2201
   405.00         198.9375
   405.14         198.5975
   405.28         198.1884
   405.42         197.6951
   405.56         197.0943
   405.70         196.3837
   405.84         195.5722
   405.98         194.6709
   406.12         193.7041
   406.26         192.7062
   406.40         191.7100
   406.54         190.7428
   406.68         189.8362
   406.82         189.0364
   406.96         188.3921
   407.10         187.9454
   407.24         187.7024
   407.38         187.6161
   407.52         187.6301
   407.66         187.7154
   407.80         187.8504
   407.94         188.0040
   408.08         188.1457
   408.22         188.2386
   408.36         188.2139
   408.50         187.9527
   408.64         187.2965
   408.78         186.0599
   408.92         184.0584
   409.06         181.2034
   409.20         177.5746
   409.34         173.3915
   409.48         168.9618
   409.62         164.6482
   409.76         160.8298
   409.90         157.8391
   410.04         155.9360
   410.18         155.2990
   410.32         155.9796
   410.46         157.8665
   410.60         160.7042
   410.74         164.1417
   410.88         167.7815
   411.02         171.2398
   411.16         174.2080
   411.30         176.4943
   411.44         178.0363
   411.58         178.9000
   411.72         179.2621
   411.86         179.3288
   412.00         179.2605
   412.14         179.1661
   412.28         179.1226
   412.42         179.1773
   412.56         179.3409
   412.70         179.5962
   412.84         179.8978
   412.98         180.1667
   413.12         180.3145
   413.26         180.2917
   413.40         180.1056
   413.54         179.8000
   413.68         179.4349
   413.82         179.0789
   413.96         178.7918
   414.10         178.6099
   414.24         178.5561
   414.38         178.6509
   414.52         178.9106
   414.66         179.3349
   414.80         179.8961
   414.94         180.5462
   415.08         181.2289
   415.22         181.8839
   415.36         182.4433
   415.50         182.8360
   415.64         183.0115
   415.78         182.9652
   415.92         182.7323
   416.06         182.3556
   416.20         181.8743
   416.34         181.3293
   416.48         180.7468
   416.62         180.1241
   416.76         179.4451
   416.90         178.7008
   417.04         177.9004
   417.18         177.0804
   417.32         176.2884
   417.46         175.5615
   417.60         174.9255
   417.74         174.3980
   417.88         173.9778
   418.02         173.6414
   418.16         173.3748
   418.30         173.1989
   418.44         173.1491
   418.58         173.2559
   418.72         173.5350
   418.86         173.9705
   419.00         174.5145
   419.14         175.1051
   419.28         175.6832
   419.42         176.1993
   419.56         176.6106
   419.70         176.8842
   419.84         176.9976
   419.98         176.9208
   420.12         176.6240
   420.26         176.1095
   420.40         175.4178
   420.54         174.6028
   420.68         173.7202
   420.82         172.8349
   420.96         172.0061
   421.10         171.2585
   421.24         170.5805
   421.38         169.9465
   421.52         169.3378
   421.66         168.7482
   421.80         168.1742
   421.94         167.6115
   422.08         167.0574
   422.22         166.5169
   422.36         166.0111
   422.50         165.5720
   422.64         165.2370
   422.78         165.0465
   422.92         165.0280
   423.06         165.1887
   423.20         165.5168
   423.34         165.9880
   423.48         166.5719
   423.62         167.2371
   423.76         167.9369
   423.90         168.6068
   424.04         169.1964
   424.18         169.6800
   424.32         170.0306
   424.46         170.2139
   424.60         170.2124
   424.74         170.0253
   424.88         169.6750
   425.02         169.2078
   425.16         168.6724
   425.30         168.1095
   425.44         167.5404
   425.58         166.9740
   425.72         166.4231
   425.86         165.8884
   426.00         165.3576
   426.14         164.8357
   426.28         164.3519
   426.42         163.9408
   426.56         163.6349
   426.70         163.4619
   426.84         163.4318
   426.98         163.5261
   427.12         163.7155
   427.26         163.9795
   427.40         164.3023
   427.54         164.6753
   427.68         165.0905
   427.82         165.5275
   427.96         165.9484
   428.10         166.3126
   428.24         166.6019
   428.38         166.8133
   428.52         166.9447
   428.66         167.0124
   428.80         167.0499
   428.94         167.0799
   429.08         167.0949
   429.22         167.0659
   429.36         166.9656
   429.50         166.7857
   429.64         166.5404
   429.78         166.2604
   429.92         165.9775
   430.06         165.7128
   430.20         165.4691
   430.34         165.2265
   430.48         164.9507
   430.62         164.6212
   430.76         164.2512
   430.90         163.8733
   431.04         163.5097
   431.18         163.1687
   431.32         162.8569
   431.46         162.5871
   431.60         162.3743
   431.74         162.2276
   431.88         162.1394
   432.02         162.0802
   432.16         162.0069
   432.30         161.8633
   432.44         161.5439
   432.58         160.8763
   432.72         159.6671
   432.86         157.7702
   433.00         155.1439
   433.14         151.8755
   433.28         148.1670
   433.42         144.2912
   433.56         140.5479
   433.70         137.2299
   433.84         134.5962
   433.98         132.8528
   434.12         132.1348
   434.26         132.4789
   434.40         133.8122
   434.54         135.9742
   434.68         138.7458
   434.82         141.8637
   434.96         145.0382
   435.10         148.0095
   435.24         150.6081
   435.38         152.7684
   435.52         154.5099
   435.66         155.9098
   435.80         157.0599
   435.94         158.0259
   436.08         158.8325
   436.22         159.4801
   436.36         159.9700
   436.50         160.3115
   436.64         160.5164
   436.78         160.6001
   436.92         160.5817
   437.06         160.4731
   437.20         160.2617
   437.34         159.9111
   437.48         159.3832
   437.62         158.6688
   437.76         157.8037
   437.90         156.8446
   438.04         155.8453
   438.18         154.8679
   438.32         153.9858
   438.46         153.2708
   438.60         152.7720
   438.74         152.5102
   438.88         152.4894
   439.02         152.6953
   439.16         153.0939
   439.30         153.6369
   439.44         154.2565
   439.58         154.8688
   439.72         155.3829
   439.86         155.7249
   440.00         155.8675
   440.14         155.8314
   440.28         155.6707
   440.42         155.4438
   440.56         155.1834
   440.70         154.9015
   440.84         154.6052
   440.98         154.2832
   441.12         153.8917
   441.26         153.3712
   441.40         152.6752
   441.54         151.7780
   441.68         150.6712
   441.82         149.3556
   441.96         147.8244
   442.10         146.0852
   442.24         144.1945
   442.38         142.2532
   442.52         140.3876
   442.66         138.7277
   442.80         137.3844
   442.94         136.4346
   443.08         135.9144
   443.22         135.8237
   443.36         136.1342
   443.50         136.7886
   443.64         137.7048
   443.78         138.7962
   443.92         139.9873
   444.06         141.2115
   444.20         142.4013
   444.34         143.4992
   444.48         144.4824
   444.62         145.3593
   444.76         146.1417
   444.90         146.8245
   445.04         147.3963
   445.18         147.8446
   445.32         148.1564
   445.46         148.3283
   445.60         148.3661
   445.74         148.2681
   445.88         148.0130
   446.02         147.5799
   446.16         146.9753
   446.30         146.2327
   446.44         145.3985
   446.58         144.5245
   446.72         143.6597
   446.86         142.8389
   447.00         142.0951
   447.14         141.4621
   447.28         140.9609
   447.42         140.6078
   447.56         140.4294
   447.70         140.4516
   447.84         140.6808
   447.98         141.0979
   448.12         141.6660
   448.26         142.3362
   448.40         143.0572
   448.54         143.7886
   448.68         144.5081
   448.82         145.2082
   448.96         145.8766
   449.10         146.4820
   449.24         146.9798
   449.38         147.3269
   449.52         147.5068
   449.66         147.5437
   449.80         147.4816
   449.94         147.3714
   450.08         147.2546
   450.22         147.1460
   450.36         147.0439
   450.50         146.9451
   450.64         146.8575
   450.78         146.8013
   450.92         146.7823
   451.06         146.7864
   451.20         146.7911
   451.34         146.7736
   451.48         146.7128
   451.62         146.5946
   451.76         146.4173
   451.90         146.1748
   452.04         145.8654
   452.18         145.5126
   452.32         145.1512
   452.46         144.8100
   452.60         144.5175
   452.74         144.2887
   452.88         144.1155
