# File BD+63137
# Wavelength [nm]    Normalized Amplitude
   349.70         1.0705
   349.84         1.0452
   349.98         1.0326
   350.12         1.0314
   350.26         1.0394
   350.40         1.0538
   350.54         1.0720
   350.68         1.0911
   350.82         1.1076
   350.96         1.1187
   351.10         1.1225
   351.24         1.1187
   351.38         1.1076
   351.52         1.0911
   351.66         1.0720
   351.80         1.0538
   351.94         1.0394
   352.08         1.0314
   352.22         1.0326
   352.36         1.0452
   352.50         1.0705
   352.64         1.1085
   352.78         1.1582
   352.92         1.2174
   353.06         1.2828
   353.20         1.3504
   353.34         1.4153
   353.48         1.4727
   353.62         1.5193
   353.76         1.5534
   353.90         1.5746
   354.04         1.5834
   354.18         1.5810
   354.32         1.5689
   354.46         1.5485
   354.60         1.5209
   354.74         1.4874
   354.88         1.4499
   355.02         1.4104
   355.16         1.3708
   355.30         1.3317
   355.44         1.2926
   355.58         1.2523
   355.72         1.2097
   355.86         1.1643
   356.00         1.1163
   356.14         1.0667
   356.28         1.0171
   356.42         0.9688
   356.56         0.9232
   356.70         0.8810
   356.84         0.8422
   356.98         0.8074
   357.12         0.7769
   357.26         0.7512
   357.40         0.7302
   357.54         0.7136
   357.68         0.7014
   357.82         0.6936
   357.96         0.6898
   358.10         0.6901
   358.24         0.6945
   358.38         0.7041
   358.52         0.7204
   358.66         0.7445
   358.80         0.7769
   358.94         0.8165
   359.08         0.8606
   359.22         0.9053
   359.36         0.9464
   359.50         0.9805
   359.64         1.0054
   359.78         1.0201
   359.92         1.0247
   360.06         1.0200
   360.20         1.0085
   360.34         0.9935
   360.48         0.9775
   360.62         0.9618
   360.76         0.9478
   360.90         0.9375
   361.04         0.9329
   361.18         0.9357
   361.32         0.9464
   361.46         0.9643
   361.60         0.9881
   361.74         1.0153
   361.88         1.0428
   362.02         1.0682
   362.16         1.0899
   362.30         1.1073
   362.44         1.1203
   362.58         1.1297
   362.72         1.1366
   362.86         1.1422
   363.00         1.1469
   363.14         1.1504
   363.28         1.1522
   363.42         1.1522
   363.56         1.1508
   363.70         1.1484
   363.84         1.1449
   363.98         1.1404
   364.12         1.1352
   364.26         1.1300
   364.40         1.1258
   364.54         1.1247
   364.68         1.1293
   364.82         1.1424
   364.96         1.1660
   365.10         1.2012
   365.24         1.2472
   365.38         1.3015
   365.52         1.3599
   365.66         1.4173
   365.80         1.4691
   365.94         1.5117
   366.08         1.5435
   366.22         1.5641
   366.36         1.5739
   366.50         1.5740
   366.64         1.5658
   366.78         1.5505
   366.92         1.5294
   367.06         1.5041
   367.20         1.4760
   367.34         1.4465
   367.48         1.4169
   367.62         1.3880
   367.76         1.3606
   367.90         1.3356
   368.04         1.3144
   368.18         1.2984
   368.32         1.2892
   368.46         1.2877
   368.60         1.2946
   368.74         1.3098
   368.88         1.3324
   369.02         1.3607
   369.16         1.3918
   369.30         1.4212
   369.44         1.4445
   369.58         1.4576
   369.72         1.4582
   369.86         1.4452
   370.00         1.4197
   370.14         1.3845
   370.28         1.3438
   370.42         1.3019
   370.56         1.2622
   370.70         1.2263
   370.84         1.1940
   370.98         1.1647
   371.12         1.1371
   371.26         1.1106
   371.40         1.0844
   371.54         1.0576
   371.68         1.0295
   371.82         0.9996
   371.96         0.9684
   372.10         0.9373
   372.24         0.9080
   372.38         0.8820
   372.52         0.8603
   372.66         0.8429
   372.80         0.8294
   372.94         0.8183
   373.08         0.8084
   373.22         0.7981
   373.36         0.7865
   373.50         0.7734
   373.64         0.7593
   373.78         0.7455
   373.92         0.7334
   374.06         0.7243
   374.20         0.7195
   374.34         0.7202
   374.48         0.7268
   374.62         0.7391
   374.76         0.7561
   374.90         0.7768
   375.04         0.8009
   375.18         0.8280
   375.32         0.8575
   375.46         0.8881
   375.60         0.9185
   375.74         0.9477
   375.88         0.9758
   376.02         1.0037
   376.16         1.0333
   376.30         1.0664
   376.44         1.1045
   376.58         1.1480
   376.72         1.1967
   376.86         1.2495
   377.00         1.3040
   377.14         1.3574
   377.28         1.4067
   377.42         1.4488
   377.56         1.4813
   377.70         1.5019
   377.84         1.5095
   377.98         1.5044
   378.12         1.4885
   378.26         1.4644
   378.40         1.4352
   378.54         1.4035
   378.68         1.3713
   378.82         1.3401
   378.96         1.3113
   379.10         1.2870
   379.24         1.2695
   379.38         1.2606
   379.52         1.2607
   379.66         1.2690
   379.80         1.2837
   379.94         1.3028
   380.08         1.3238
   380.22         1.3436
   380.36         1.3595
   380.50         1.3689
   380.64         1.3695
   380.78         1.3595
   380.92         1.3376
   381.06         1.3037
   381.20         1.2592
   381.34         1.2066
   381.48         1.1487
   381.62         1.0890
   381.76         1.0311
   381.90         0.9779
   382.04         0.9312
   382.18         0.8925
   382.32         0.8631
   382.46         0.8440
   382.60         0.8353
   382.74         0.8354
   382.88         0.8423
   383.02         0.8544
   383.16         0.8709
   383.30         0.8917
   383.44         0.9168
   383.58         0.9466
   383.72         0.9808
   383.86         1.0181
   384.00         1.0569
   384.14         1.0958
   384.28         1.1331
   384.42         1.1666
   384.56         1.1937
   384.70         1.2116
   384.84         1.2184
   384.98         1.2140
   385.12         1.1996
   385.26         1.1774
   385.40         1.1507
   385.54         1.1240
   385.68         1.1022
   385.82         1.0891
   385.96         1.0869
   386.10         1.0956
   386.24         1.1137
   386.38         1.1382
   386.52         1.1661
   386.66         1.1942
   386.80         1.2194
   386.94         1.2394
   387.08         1.2525
   387.22         1.2579
   387.36         1.2558
   387.50         1.2472
   387.64         1.2342
   387.78         1.2191
   387.92         1.2048
   388.06         1.1939
   388.20         1.1881
   388.34         1.1874
   388.48         1.1912
   388.62         1.1981
   388.76         1.2072
   388.90         1.2173
   389.04         1.2276
   389.18         1.2374
   389.32         1.2460
   389.46         1.2537
   389.60         1.2609
   389.74         1.2686
   389.88         1.2777
   390.02         1.2894
   390.16         1.3053
   390.30         1.3269
   390.44         1.3547
   390.58         1.3873
   390.72         1.4216
   390.86         1.4534
   391.00         1.4785
   391.14         1.4940
   391.28         1.4979
   391.42         1.4895
   391.56         1.4688
   391.70         1.4365
   391.84         1.3939
   391.98         1.3430
   392.12         1.2872
   392.26         1.2297
   392.40         1.1739
   392.54         1.1225
   392.68         1.0779
   392.82         1.0421
   392.96         1.0157
   393.10         0.9979
   393.24         0.9870
   393.38         0.9813
   393.52         0.9803
   393.66         0.9843
   393.80         0.9942
   393.94         1.0112
   394.08         1.0358
   394.22         1.0674
   394.36         1.1046
   394.50         1.1451
   394.64         1.1864
   394.78         1.2251
   394.92         1.2577
   395.06         1.2808
   395.20         1.2922
   395.34         1.2906
   395.48         1.2756
   395.62         1.2480
   395.76         1.2100
   395.90         1.1658
   396.04         1.1212
   396.18         1.0823
   396.32         1.0551
   396.46         1.0441
   396.60         1.0524
   396.74         1.0806
   396.88         1.1276
   397.02         1.1906
   397.16         1.2663
   397.30         1.3512
   397.44         1.4425
   397.58         1.5375
   397.72         1.6333
   397.86         1.7269
   398.00         1.8155
   398.14         1.8971
   398.28         1.9704
   398.42         2.0345
   398.56         2.0889
   398.70         2.1339
   398.84         2.1707
   398.98         2.2006
   399.12         2.2251
   399.26         2.2449
   399.40         2.2611
   399.54         2.2750
   399.68         2.2885
   399.82         2.3044
   399.96         2.3252
   400.10         2.3523
   400.24         2.3858
   400.38         2.4250
   400.52         2.4683
   400.66         2.5140
   400.80         2.5603
   400.94         2.6047
   401.08         2.6448
   401.22         2.6791
   401.36         2.7067
   401.50         2.7273
   401.64         2.7401
   401.78         2.7433
   401.92         2.7348
   402.06         2.7127
   402.20         2.6768
   402.34         2.6289
   402.48         2.5736
   402.62         2.5172
   402.76         2.4659
   402.90         2.4251
   403.04         2.3982
   403.18         2.3860
   403.32         2.3865
   403.46         2.3966
   403.60         2.4132
   403.74         2.4343
   403.88         2.4590
   404.02         2.4866
   404.16         2.5166
   404.30         2.5474
   404.44         2.5778
   404.58         2.6071
   404.72         2.6363
   404.86         2.6667
   405.00         2.6982
   405.14         2.7285
   405.28         2.7535
   405.42         2.7690
   405.56         2.7723
   405.70         2.7627
   405.84         2.7412
   405.98         2.7113
   406.12         2.6785
   406.26         2.6494
   406.40         2.6292
   406.54         2.6204
   406.68         2.6234
   406.82         2.6378
   406.96         2.6630
   407.10         2.6981
   407.24         2.7422
   407.38         2.7944
   407.52         2.8543
   407.66         2.9217
   407.80         2.9964
   407.94         3.0778
   408.08         3.1637
   408.22         3.2504
   408.36         3.3320
   408.50         3.4019
   408.64         3.4539
   408.78         3.4838
   408.92         3.4888
   409.06         3.4684
   409.20         3.4255
   409.34         3.3656
   409.48         3.2960
   409.62         3.2237
   409.76         3.1551
   409.90         3.0957
   410.04         3.0497
   410.18         3.0193
   410.32         3.0048
   410.46         3.0046
   410.60         3.0164
   410.74         3.0377
   410.88         3.0657
   411.02         3.0975
   411.16         3.1312
   411.30         3.1669
   411.44         3.2052
   411.58         3.2464
   411.72         3.2895
   411.86         3.3315
   412.00         3.3676
   412.14         3.3930
   412.28         3.4047
   412.42         3.4018
   412.56         3.3864
   412.70         3.3627
   412.84         3.3348
   412.98         3.3052
   413.12         3.2746
   413.26         3.2429
   413.40         3.2106
   413.54         3.1798
   413.68         3.1537
   413.82         3.1351
   413.96         3.1258
   414.10         3.1256
   414.24         3.1328
   414.38         3.1464
   414.52         3.1660
   414.66         3.1931
   414.80         3.2296
   414.94         3.2776
   415.08         3.3374
   415.22         3.4067
   415.36         3.4797
   415.50         3.5487
   415.64         3.6066
   415.78         3.6490
   415.92         3.6744
   416.06         3.6826
   416.20         3.6735
   416.34         3.6476
   416.48         3.6069
   416.62         3.5552
   416.76         3.4984
   416.90         3.4433
   417.04         3.3967
   417.18         3.3639
   417.32         3.3483
   417.46         3.3501
   417.60         3.3670
   417.74         3.3945
   417.88         3.4274
   418.02         3.4606
   418.16         3.4910
   418.30         3.5165
   418.44         3.5355
   418.58         3.5459
   418.72         3.5453
   418.86         3.5326
   419.00         3.5081
   419.14         3.4739
   419.28         3.4330
   419.42         3.3893
   419.56         3.3470
   419.70         3.3096
   419.84         3.2803
   419.98         3.2621
   420.12         3.2568
   420.26         3.2651
   420.40         3.2854
   420.54         3.3139
   420.68         3.3450
   420.82         3.3718
   420.96         3.3860
   421.10         3.3787
   421.24         3.3418
   421.38         3.2696
   421.52         3.1603
   421.66         3.0163
   421.80         2.8446
   421.94         2.6554
   422.08         2.4608
   422.22         2.2736
   422.36         2.1061
   422.50         1.9698
   422.64         1.8741
   422.78         1.8251
   422.92         1.8248
   423.06         1.8720
   423.20         1.9630
   423.34         2.0911
   423.48         2.2464
   423.62         2.4161
   423.76         2.5863
   423.90         2.7430
   424.04         2.8742
   424.18         2.9713
   424.32         3.0301
   424.46         3.0512
   424.60         3.0391
   424.74         3.0011
   424.88         2.9457
   425.02         2.8829
   425.16         2.8236
   425.30         2.7787
   425.44         2.7569
   425.58         2.7640
   425.72         2.8010
   425.86         2.8636
   426.00         2.9422
   426.14         3.0238
   426.28         3.0943
   426.42         3.1429
   426.56         3.1641
   426.70         3.1585
   426.84         3.1323
   426.98         3.0943
   427.12         3.0541
   427.26         3.0204
   427.40         2.9994
   427.54         2.9948
   427.68         3.0065
   427.82         3.0309
   427.96         3.0613
   428.10         3.0907
   428.24         3.1132
   428.38         3.1249
   428.52         3.1243
   428.66         3.1121
   428.80         3.0912
   428.94         3.0661
   429.08         3.0425
   429.22         3.0257
   429.36         3.0185
   429.50         3.0200
   429.64         3.0266
   429.78         3.0348
   429.92         3.0433
   430.06         3.0532
   430.20         3.0673
   430.34         3.0892
   430.48         3.1243
   430.62         3.1787
   430.76         3.2569
   430.90         3.3598
   431.04         3.4842
   431.18         3.6223
   431.32         3.7634
   431.46         3.8957
   431.60         4.0101
   431.74         4.1024
   431.88         4.1728
   432.02         4.2238
   432.16         4.2607
   432.30         4.2908
   432.44         4.3222
   432.58         4.3606
   432.72         4.4076
   432.86         4.4616
   433.00         4.5199
   433.14         4.5797
   433.28         4.6376
   433.42         4.6895
   433.56         4.7324
   433.70         4.7649
   433.84         4.7862
   433.98         4.7961
   434.12         4.7961
   434.26         4.7901
   434.40         4.7830
   434.54         4.7783
   434.68         4.7781
   434.82         4.7827
   434.96         4.7915
   435.10         4.8040
   435.24         4.8208
   435.38         4.8442
   435.52         4.8772
   435.66         4.9214
   435.80         4.9754
   435.94         5.0358
   436.08         5.0975
   436.22         5.1547
   436.36         5.2002
   436.50         5.2268
   436.64         5.2291
   436.78         5.2055
   436.92         5.1571
   437.06         5.0848
   437.20         4.9890
   437.34         4.8713
   437.48         4.7365
   437.62         4.5930
   437.76         4.4515
   437.90         4.3229
   438.04         4.2171
   438.18         4.1425
   438.32         4.1053
   438.46         4.1094
   438.60         4.1565
   438.74         4.2441
   438.88         4.3649
   439.02         4.5073
   439.16         4.6561
   439.30         4.7940
   439.44         4.9040
   439.58         4.9733
   439.72         4.9968
   439.86         4.9786
   440.00         4.9306
   440.14         4.8671
   440.28         4.8006
   440.42         4.7413
   440.56         4.6988
   440.70         4.6821
   440.84         4.6974
   440.98         4.7466
   441.12         4.8261
   441.26         4.9270
   441.40         5.0357
   441.54         5.1378
   441.68         5.2217
   441.82         5.2809
   441.96         5.3145
   442.10         5.3257
   442.24         5.3189
   442.38         5.2980
   442.52         5.2671
   442.66         5.2317
   442.80         5.1984
   442.94         5.1739
   443.08         5.1646
   443.22         5.1759
   443.36         5.2112
   443.50         5.2705
   443.64         5.3503
   443.78         5.4455
   443.92         5.5497
   444.06         5.6551
   444.20         5.7521
   444.34         5.8297
   444.48         5.8765
   444.62         5.8838
   444.76         5.8474
   444.90         5.7689
   445.04         5.6574
   445.18         5.5289
   445.32         5.4013
   445.46         5.2905
   445.60         5.2087
   445.74         5.1658
   445.88         5.1701
   446.02         5.2257
   446.16         5.3312
   446.30         5.4786
   446.44         5.6561
   446.58         5.8495
   446.72         6.0436
   446.86         6.2231
   447.00         6.3765
   447.14         6.4979
   447.28         6.5876
   447.42         6.6497
   447.56         6.6900
   447.70         6.7138
   447.84         6.7259
   447.98         6.7300
   448.12         6.7290
   448.26         6.7240
   448.40         6.7155
   448.54         6.7048
   448.68         6.6940
   448.82         6.6859
   448.96         6.6838
   449.10         6.6911
   449.24         6.7107
   449.38         6.7440
   449.52         6.7915
   449.66         6.8537
   449.80         6.9308
   449.94         7.0203
   450.08         7.1160
   450.22         7.2093
   450.36         7.2921
   450.50         7.3582
   450.64         7.4038
   450.78         7.4281
   450.92         7.4326
   451.06         7.4213
   451.20         7.3987
   451.34         7.3671
   451.48         7.3252
   451.62         7.2697
   451.76         7.1976
   451.90         7.1072
   452.04         6.9973
   452.18         6.8670
   452.32         6.7178
   452.46         6.5570
   452.60         6.3975
   452.74         6.2543
   452.88         6.1417
   453.02         6.0714
   453.16         6.0501
   453.30         6.0790
   453.44         6.1537
   453.58         6.2642
   453.72         6.3976
   453.86         6.5403
   454.00         6.6797
   454.14         6.8056
   454.28         6.9118
   454.42         6.9967
   454.56         7.0632
   454.70         7.1169
   454.84         7.1657
   454.98         7.2193
   455.12         7.2857
   455.26         7.3680
   455.40         7.4641
   455.54         7.5696
   455.68         7.6787
   455.82         7.7838
   455.96         7.8777
   456.10         7.9565
   456.24         8.0194
   456.38         8.0670
   456.52         8.0997
   456.66         8.1159
   456.80         8.1147
   456.94         8.0982
   457.08         8.0708
   457.22         8.0363
   457.36         7.9972
   457.50         7.9560
   457.64         7.9170
   457.78         7.8850
   457.92         7.8636
   458.06         7.8554
   458.20         7.8606
   458.34         7.8782
   458.48         7.9065
   458.62         7.9433
   458.76         7.9852
   458.90         8.0264
   459.04         8.0600
   459.18         8.0807
   459.32         8.0865
   459.46         8.0801
   459.60         8.0676
   459.74         8.0557
   459.88         8.0500
   460.02         8.0558
   460.16         8.0767
   460.30         8.1134
   460.44         8.1627
   460.58         8.2200
   460.72         8.2805
   460.86         8.3408
   461.00         8.3975
   461.14         8.4464
