# File BD-003227
# Wavelength [nm]    Normalized Amplitude
   349.70         3.1432
   349.84         3.1701
   349.98         3.1837
   350.12         3.1837
   350.26         3.1712
   350.40         3.1489
   350.54         3.1212
   350.68         3.0938
   350.82         3.0724
   350.96         3.0608
   351.10         3.0576
   351.24         3.0608
   351.38         3.0724
   351.52         3.0938
   351.66         3.1212
   351.80         3.1489
   351.94         3.1712
   352.08         3.1837
   352.22         3.1837
   352.36         3.1701
   352.50         3.1432
   352.64         3.1058
   352.78         3.0627
   352.92         3.0195
   353.06         2.9815
   353.20         2.9542
   353.34         2.9434
   353.48         2.9539
   353.62         2.9858
   353.76         3.0345
   353.90         3.0957
   354.04         3.1662
   354.18         3.2402
   354.32         3.3112
   354.46         3.3738
   354.60         3.4233
   354.74         3.4563
   354.88         3.4723
   355.02         3.4712
   355.16         3.4529
   355.30         3.4193
   355.44         3.3740
   355.58         3.3205
   355.72         3.2631
   355.86         3.2077
   356.00         3.1597
   356.14         3.1213
   356.28         3.0910
   356.42         3.0679
   356.56         3.0537
   356.70         3.0496
   356.84         3.0547
   356.98         3.0672
   357.12         3.0854
   357.26         3.1081
   357.40         3.1345
   357.54         3.1632
   357.68         3.1925
   357.82         3.2213
   357.96         3.2499
   358.10         3.2784
   358.24         3.3047
   358.38         3.3251
   358.52         3.3361
   358.66         3.3365
   358.80         3.3271
   358.94         3.3101
   359.08         3.2901
   359.22         3.2724
   359.36         3.2614
   359.50         3.2608
   359.64         3.2722
   359.78         3.2929
   359.92         3.3177
   360.06         3.3407
   360.20         3.3577
   360.34         3.3647
   360.48         3.3582
   360.62         3.3360
   360.76         3.2981
   360.90         3.2461
   361.04         3.1851
   361.18         3.1237
   361.32         3.0714
   361.46         3.0360
   361.60         3.0222
   361.74         3.0305
   361.88         3.0576
   362.02         3.0980
   362.16         3.1456
   362.30         3.1935
   362.44         3.2345
   362.58         3.2641
   362.72         3.2820
   362.86         3.2889
   363.00         3.2857
   363.14         3.2744
   363.28         3.2580
   363.42         3.2399
   363.56         3.2245
   363.70         3.2156
   363.84         3.2158
   363.98         3.2261
   364.12         3.2462
   364.26         3.2744
   364.40         3.3082
   364.54         3.3452
   364.68         3.3847
   364.82         3.4262
   364.96         3.4676
   365.10         3.5059
   365.24         3.5395
   365.38         3.5677
   365.52         3.5892
   365.66         3.6035
   365.80         3.6102
   365.94         3.6094
   366.08         3.6031
   366.22         3.5956
   366.36         3.5911
   366.50         3.5931
   366.64         3.6038
   366.78         3.6246
   366.92         3.6559
   367.06         3.6961
   367.20         3.7423
   367.34         3.7911
   367.48         3.8381
   367.62         3.8807
   367.76         3.9194
   367.90         3.9558
   368.04         3.9917
   368.18         4.0316
   368.32         4.0798
   368.46         4.1375
   368.60         4.2027
   368.74         4.2740
   368.88         4.3507
   369.02         4.4316
   369.16         4.5136
   369.30         4.5917
   369.44         4.6618
   369.58         4.7212
   369.72         4.7680
   369.86         4.8002
   370.00         4.8161
   370.14         4.8176
   370.28         4.8120
   370.42         4.8089
   370.56         4.8181
   370.70         4.8487
   370.84         4.9053
   370.98         4.9836
   371.12         5.0736
   371.26         5.1683
   371.40         5.2662
   371.54         5.3672
   371.68         5.4691
   371.82         5.5685
   371.96         5.6606
   372.10         5.7385
   372.24         5.7934
   372.38         5.8172
   372.52         5.8076
   372.66         5.7713
   372.80         5.7221
   372.94         5.6750
   373.08         5.6408
   373.22         5.6251
   373.36         5.6282
   373.50         5.6450
   373.64         5.6668
   373.78         5.6861
   373.92         5.6999
   374.06         5.7082
   374.20         5.7115
   374.34         5.7125
   374.48         5.7147
   374.62         5.7208
   374.76         5.7335
   374.90         5.7597
   375.04         5.8096
   375.18         5.8921
   375.32         6.0110
   375.46         6.1597
   375.60         6.3229
   375.74         6.4811
   375.88         6.6144
   376.02         6.7059
   376.16         6.7466
   376.30         6.7385
   376.44         6.6957
   376.58         6.6392
   376.72         6.5923
   376.86         6.5761
   377.00         6.6074
   377.14         6.6960
   377.28         6.8431
   377.42         7.0424
   377.56         7.2817
   377.70         7.5431
   377.84         7.8056
   377.98         8.0469
   378.12         8.2441
   378.26         8.3777
   378.40         8.4337
   378.54         8.4046
   378.68         8.2921
   378.82         8.1078
   378.96         7.8727
   379.10         7.6148
   379.24         7.3635
   379.38         7.1458
   379.52         6.9833
   379.66         6.8919
   379.80         6.8826
   379.94         6.9591
   380.08         7.1132
   380.22         7.3259
   380.36         7.5759
   380.50         7.8435
   380.64         8.1101
   380.78         8.3573
   380.92         8.5700
   381.06         8.7390
   381.20         8.8626
   381.34         8.9444
   381.48         8.9895
   381.62         9.0018
   381.76         8.9825
   381.90         8.9299
   382.04         8.8405
   382.18         8.7099
   382.32         8.5340
   382.46         8.3107
   382.60         8.0415
   382.74         7.7349
   382.88         7.4113
   383.02         7.1029
   383.16         6.8426
   383.30         6.6554
   383.44         6.5570
   383.58         6.5559
   383.72         6.6518
   383.86         6.8351
   384.00         7.0895
   384.14         7.3949
   384.28         7.7295
   384.42         8.0714
   384.56         8.3984
   384.70         8.6911
   384.84         8.9385
   384.98         9.1399
   385.12         9.3022
   385.26         9.4361
   385.40         9.5527
   385.54         9.6611
   385.68         9.7672
   385.82         9.8727
   385.96         9.9756
   386.10         10.0708
   386.24         10.1516
   386.38         10.2115
   386.52         10.2454
   386.66         10.2496
   386.80         10.2208
   386.94         10.1558
   387.08         10.0525
   387.22         9.9103
   387.36         9.7304
   387.50         9.5134
   387.64         9.2588
   387.78         8.9685
   387.92         8.6513
   388.06         8.3246
   388.20         8.0092
   388.34         7.7258
   388.48         7.4913
   388.62         7.3173
   388.76         7.2131
   388.90         7.1859
   389.04         7.2375
   389.18         7.3615
   389.32         7.5437
   389.46         7.7651
   389.60         8.0072
   389.74         8.2547
   389.88         8.4948
   390.02         8.7169
   390.16         8.9139
   390.30         9.0827
   390.44         9.2261
   390.58         9.3485
   390.72         9.4530
   390.86         9.5389
   391.00         9.6026
   391.14         9.6407
   391.28         9.6525
   391.42         9.6363
   391.56         9.5865
   391.70         9.4942
   391.84         9.3469
   391.98         9.1313
   392.12         8.8378
   392.26         8.4645
   392.40         8.0188
   392.54         7.5187
   392.68         6.9933
   392.82         6.4797
   392.96         6.0192
   393.10         5.6512
   393.24         5.4079
   393.38         5.3098
   393.52         5.3635
   393.66         5.5608
   393.80         5.8812
   393.94         6.2940
   394.08         6.7610
   394.22         7.2421
   394.36         7.7007
   394.50         8.1062
   394.64         8.4393
   394.78         8.6932
   394.92         8.8704
   395.06         8.9762
   395.20         9.0135
   395.34         8.9791
   395.48         8.8631
   395.62         8.6541
   395.76         8.3465
   395.90         7.9469
   396.04         7.4766
   396.18         6.9684
   396.32         6.4633
   396.46         6.0058
   396.60         5.6387
   396.74         5.3983
   396.88         5.3088
   397.02         5.3790
   397.16         5.6023
   397.30         5.9589
   397.44         6.4172
   397.58         6.9378
   397.72         7.4793
   397.86         8.0044
   398.00         8.4837
   398.14         8.8990
   398.28         9.2443
   398.42         9.5222
   398.56         9.7417
   398.70         9.9133
   398.84         10.0470
   398.98         10.1515
   399.12         10.2329
   399.26         10.2934
   399.40         10.3328
   399.54         10.3526
   399.68         10.3572
   399.82         10.3526
   399.96         10.3442
   400.10         10.3364
   400.24         10.3340
   400.38         10.3420
   400.52         10.3640
   400.66         10.4008
   400.80         10.4506
   400.94         10.5084
   401.08         10.5684
   401.22         10.6256
   401.36         10.6769
   401.50         10.7185
   401.64         10.7460
   401.78         10.7554
   401.92         10.7447
   402.06         10.7154
   402.20         10.6725
   402.34         10.6215
   402.48         10.5671
   402.62         10.5159
   402.76         10.4752
   402.90         10.4502
   403.04         10.4415
   403.18         10.4451
   403.32         10.4550
   403.46         10.4665
   403.60         10.4765
   403.74         10.4833
   403.88         10.4866
   404.02         10.4861
   404.16         10.4802
   404.30         10.4677
   404.44         10.4477
   404.58         10.4217
   404.72         10.3948
   404.86         10.3723
   405.00         10.3575
   405.14         10.3501
   405.28         10.3476
   405.42         10.3468
   405.56         10.3433
   405.70         10.3343
   405.84         10.3201
   405.98         10.3035
   406.12         10.2875
   406.26         10.2713
   406.40         10.2502
   406.54         10.2194
   406.68         10.1769
   406.82         10.1253
   406.96         10.0703
   407.10         10.0180
   407.24         9.9736
   407.38         9.9399
   407.52         9.9174
   407.66         9.9071
   407.80         9.9106
   407.94         9.9269
   408.08         9.9512
   408.22         9.9756
   408.36         9.9907
   408.50         9.9859
   408.64         9.9487
   408.78         9.8656
   408.92         9.7240
   409.06         9.5195
   409.20         9.2599
   409.34         8.9617
   409.48         8.6471
   409.62         8.3405
   409.76         8.0665
   409.90         7.8478
   410.04         7.7035
   410.18         7.6480
   410.32         7.6875
   410.46         7.8170
   410.60         8.0208
   410.74         8.2785
   410.88         8.5675
   411.02         8.8633
   411.16         9.1420
   411.30         9.3843
   411.44         9.5769
   411.58         9.7142
   411.72         9.7992
   411.86         9.8395
   412.00         9.8439
   412.14         9.8218
   412.28         9.7839
   412.42         9.7411
   412.56         9.7027
   412.70         9.6773
   412.84         9.6736
   412.98         9.6954
   413.12         9.7401
   413.26         9.8030
   413.40         9.8790
   413.54         9.9623
   413.68         10.0461
   413.82         10.1243
   413.96         10.1919
   414.10         10.2441
   414.24         10.2773
   414.38         10.2906
   414.52         10.2840
   414.66         10.2593
   414.80         10.2204
   414.94         10.1730
   415.08         10.1226
   415.22         10.0741
   415.36         10.0327
   415.50         10.0023
   415.64         9.9831
   415.78         9.9732
   415.92         9.9685
   416.06         9.9630
   416.20         9.9506
   416.34         9.9267
   416.48         9.8885
   416.62         9.8353
   416.76         9.7682
   416.90         9.6903
   417.04         9.6069
   417.18         9.5237
   417.32         9.4480
   417.46         9.3873
   417.60         9.3461
   417.74         9.3260
   417.88         9.3280
   418.02         9.3521
   418.16         9.3963
   418.30         9.4556
   418.44         9.5225
   418.58         9.5898
   418.72         9.6525
   418.86         9.7081
   419.00         9.7543
   419.14         9.7892
   419.28         9.8113
   419.42         9.8194
   419.56         9.8141
   419.70         9.7982
   419.84         9.7764
   419.98         9.7546
   420.12         9.7378
   420.26         9.7286
   420.40         9.7284
   420.54         9.7376
   420.68         9.7540
   420.82         9.7740
   420.96         9.7938
   421.10         9.8096
   421.24         9.8177
   421.38         9.8155
   421.52         9.8011
   421.66         9.7745
   421.80         9.7386
   421.94         9.6974
   422.08         9.6537
   422.22         9.6096
   422.36         9.5669
   422.50         9.5275
   422.64         9.4939
   422.78         9.4682
   422.92         9.4524
   423.06         9.4493
   423.20         9.4623
   423.34         9.4930
   423.48         9.5378
   423.62         9.5892
   423.76         9.6381
   423.90         9.6772
   424.04         9.7030
   424.18         9.7155
   424.32         9.7173
   424.46         9.7106
   424.60         9.6961
   424.74         9.6745
   424.88         9.6485
   425.02         9.6233
   425.16         9.6046
   425.30         9.5976
   425.44         9.6053
   425.58         9.6282
   425.72         9.6633
   425.86         9.7043
   426.00         9.7413
   426.14         9.7654
   426.28         9.7719
   426.42         9.7606
   426.56         9.7348
   426.70         9.7003
   426.84         9.6623
   426.98         9.6257
   427.12         9.5945
   427.26         9.5726
   427.40         9.5632
   427.54         9.5669
   427.68         9.5814
   427.82         9.6015
   427.96         9.6204
   428.10         9.6306
   428.24         9.6251
   428.38         9.5991
   428.52         9.5514
   428.66         9.4824
   428.80         9.3946
   428.94         9.2914
   429.08         9.1778
   429.22         9.0601
   429.36         8.9455
   429.50         8.8405
   429.64         8.7500
   429.78         8.6771
   429.92         8.6241
   430.06         8.5918
   430.20         8.5781
   430.34         8.5806
   430.48         8.5985
   430.62         8.6320
   430.76         8.6808
   430.90         8.7417
   431.04         8.8095
   431.18         8.8789
   431.32         8.9451
   431.46         9.0057
   431.60         9.0603
   431.74         9.1111
   431.88         9.1603
   432.02         9.2061
   432.16         9.2438
   432.30         9.2683
   432.44         9.2728
   432.58         9.2480
   432.72         9.1831
   432.86         9.0684
   433.00         8.9006
   433.14         8.6844
   433.28         8.4321
   433.42         8.1614
   433.56         7.8941
   433.70         7.6538
   433.84         7.4620
   433.98         7.3342
   434.12         7.2781
   434.26         7.2972
   434.40         7.3912
   434.54         7.5528
   434.68         7.7676
   434.82         8.0174
   434.96         8.2827
   435.10         8.5449
   435.24         8.7892
   435.38         9.0072
   435.52         9.1963
   435.66         9.3572
   435.80         9.4922
   435.94         9.6037
   436.08         9.6935
   436.22         9.7613
   436.36         9.8052
   436.50         9.8245
   436.64         9.8231
   436.78         9.8086
   436.92         9.7909
   437.06         9.7749
   437.20         9.7585
   437.34         9.7381
   437.48         9.7124
   437.62         9.6826
   437.76         9.6502
   437.90         9.6160
   438.04         9.5803
   438.18         9.5432
   438.32         9.5042
   438.46         9.4635
   438.60         9.4230
   438.74         9.3846
   438.88         9.3486
   439.02         9.3163
   439.16         9.2903
   439.30         9.2717
   439.44         9.2581
   439.58         9.2456
   439.72         9.2317
   439.86         9.2175
   440.00         9.2080
   440.14         9.2078
   440.28         9.2182
   440.42         9.2349
   440.56         9.2510
   440.70         9.2610
   440.84         9.2623
   440.98         9.2550
   441.12         9.2418
   441.26         9.2269
   441.40         9.2144
   441.54         9.2070
   441.68         9.2072
   441.82         9.2168
   441.96         9.2357
   442.10         9.2614
   442.24         9.2901
   442.38         9.3197
   442.52         9.3497
   442.66         9.3801
   442.80         9.4100
   442.94         9.4369
   443.08         9.4575
   443.22         9.4706
   443.36         9.4775
   443.50         9.4799
   443.64         9.4773
   443.78         9.4689
   443.92         9.4550
   444.06         9.4368
   444.20         9.4159
   444.34         9.3945
   444.48         9.3753
   444.62         9.3598
   444.76         9.3477
   444.90         9.3404
   445.04         9.3404
   445.18         9.3478
   445.32         9.3592
   445.46         9.3680
   445.60         9.3677
   445.74         9.3543
   445.88         9.3278
   446.02         9.2935
   446.16         9.2584
   446.30         9.2283
   446.44         9.2081
   446.58         9.2011
   446.72         9.2084
   446.86         9.2277
   447.00         9.2554
   447.14         9.2893
   447.28         9.3279
   447.42         9.3701
   447.56         9.4134
   447.70         9.4530
   447.84         9.4845
   447.98         9.5053
   448.12         9.5153
   448.26         9.5169
   448.40         9.5153
   448.54         9.5170
   448.68         9.5263
   448.82         9.5435
   448.96         9.5677
   449.10         9.5989
   449.24         9.6364
   449.38         9.6776
   449.52         9.7195
   449.66         9.7614
   449.80         9.8036
   449.94         9.8451
   450.08         9.8821
   450.22         9.9095
   450.36         9.9251
   450.50         9.9300
   450.64         9.9254
   450.78         9.9114
   450.92         9.8874
   451.06         9.8537
   451.20         9.8118
   451.34         9.7633
   451.48         9.7104
   451.62         9.6563
   451.76         9.6035
   451.90         9.5523
   452.04         9.5024
   452.18         9.4542
   452.32         9.4100
   452.46         9.3731
   452.60         9.3470
   452.74         9.3334
   452.88         9.3314
   453.02         9.3390
   453.16         9.3542
   453.30         9.3739
   453.44         9.3945
   453.58         9.4119
   453.72         9.4210
   453.86         9.4178
   454.00         9.3994
   454.14         9.3641
   454.28         9.3132
   454.42         9.2514
   454.56         9.1852
   454.70         9.1224
   454.84         9.0731
   454.98         9.0460
   455.12         9.0437
   455.26         9.0637
   455.40         9.1014
   455.54         9.1517
   455.68         9.2098
   455.82         9.2705
   455.96         9.3281
   456.10         9.3784
   456.24         9.4197
   456.38         9.4509
   456.52         9.4720
   456.66         9.4826
   456.80         9.4819
   456.94         9.4700
   457.08         9.4482
   457.22         9.4168
   457.36         9.3770
   457.50         9.3303
   457.64         9.2772
   457.78         9.2194
   457.92         9.1631
   458.06         9.1159
   458.20         9.0830
   458.34         9.0663
   458.48         9.0659
   458.62         9.0818
   458.76         9.1128
   458.90         9.1553
   459.04         9.2045
   459.18         9.2556
   459.32         9.3045
   459.46         9.3490
   459.60         9.3892
   459.74         9.4263
   459.88         9.4604
   460.02         9.4910
   460.16         9.5176
   460.30         9.5399
   460.44         9.5578
   460.58         9.5697
   460.72         9.5732
