# File BD-144956
# Wavelength [nm]    Normalized Amplitude
   349.70         209.2067
   349.84         208.6846
   349.98         208.2774
   350.12         208.0035
   350.26         207.8560
   350.40         207.8193
   350.54         207.8460
   350.68         207.8604
   350.82         207.8237
   350.96         207.7660
   351.10         207.7392
   351.24         207.7660
   351.38         207.8237
   351.52         207.8604
   351.66         207.8460
   351.80         207.8193
   351.94         207.8560
   352.08         208.0035
   352.22         208.2774
   352.36         208.6846
   352.50         209.2067
   352.64         209.7896
   352.78         210.4109
   352.92         211.0882
   353.06         211.8136
   353.20         212.5646
   353.34         213.3310
   353.48         214.0959
   353.62         214.8089
   353.76         215.3893
   353.90         215.7708
   354.04         215.9109
   354.18         215.7754
   354.32         215.3636
   354.46         214.7172
   354.60         213.8683
   354.74         212.8354
   354.88         211.6626
   355.02         210.3994
   355.16         209.0979
   355.30         207.8250
   355.44         206.6646
   355.58         205.6888
   355.72         204.9774
   355.86         204.6218
   356.00         204.6163
   356.14         204.8693
   356.28         205.3342
   356.42         206.0156
   356.56         206.9052
   356.70         207.9526
   356.84         209.0595
   356.98         210.1106
   357.12         211.0038
   357.26         211.6458
   357.40         211.9703
   357.54         211.9461
   357.68         211.5723
   357.82         210.9032
   357.96         210.0152
   358.10         209.0041
   358.24         208.0026
   358.38         207.1206
   358.52         206.4010
   358.66         205.8687
   358.80         205.5903
   358.94         205.6152
   359.08         205.8817
   359.22         206.2556
   359.36         206.6056
   359.50         206.8200
   359.64         206.8206
   359.78         206.5873
   359.92         206.1314
   360.06         205.4725
   360.20         204.6682
   360.34         203.8027
   360.48         202.9501
   360.62         202.1761
   360.76         201.5723
   360.90         201.2452
   361.04         201.2542
   361.18         201.5868
   361.32         202.1687
   361.46         202.8948
   361.60         203.6541
   361.74         204.3484
   361.88         204.9061
   362.02         205.2659
   362.16         205.3711
   362.30         205.1816
   362.44         204.7017
   362.58         203.9870
   362.72         203.1303
   362.86         202.2504
   363.00         201.4282
   363.14         200.7217
   363.28         200.2105
   363.42         199.9692
   363.56         200.0393
   363.70         200.3980
   363.84         200.9744
   363.98         201.6967
   364.12         202.4991
   364.26         203.2958
   364.40         203.9822
   364.54         204.4631
   364.68         204.6750
   364.82         204.6126
   364.96         204.3150
   365.10         203.8424
   365.24         203.2607
   365.38         202.6261
   365.52         201.9898
   365.66         201.3882
   365.80         200.8505
   365.94         200.3814
   366.08         199.9654
   366.22         199.6006
   366.36         199.2778
   366.50         198.9833
   366.64         198.7013
   366.78         198.4176
   366.92         198.1416
   367.06         197.8937
   367.20         197.6876
   367.34         197.5312
   367.48         197.4260
   367.62         197.3474
   367.76         197.2373
   367.90         197.0293
   368.04         196.6994
   368.18         196.3021
   368.32         195.9169
   368.46         195.5524
   368.60         195.1317
   368.74         194.5689
   368.88         193.8181
   369.02         192.8735
   369.16         191.7623
   369.30         190.5101
   369.44         189.1404
   369.58         187.7090
   369.72         186.2956
   369.86         184.9768
   370.00         183.8321
   370.14         182.9625
   370.28         182.4590
   370.42         182.3557
   370.56         182.6688
   370.70         183.4023
   370.84         184.4715
   370.98         185.6715
   371.12         186.7556
   371.26         187.5883
   371.40         188.1982
   371.54         188.7073
   371.68         189.2137
   371.82         189.7278
   371.96         190.2137
   372.10         190.6273
   372.24         190.9191
   372.38         191.0414
   372.52         190.9756
   372.66         190.7700
   372.80         190.5286
   372.94         190.3450
   373.08         190.3057
   373.22         190.5362
   373.36         191.1250
   373.50         192.0406
   373.64         193.1505
   373.78         194.2750
   373.92         195.2471
   374.06         195.9381
   374.20         196.2543
   374.34         196.1303
   374.48         195.5798
   374.62         194.7385
   374.76         193.8321
   374.90         193.1570
   375.04         193.0159
   375.18         193.6122
   375.32         195.0091
   375.46         197.0913
   375.60         199.5624
   375.74         202.0216
   375.88         204.0252
   376.02         205.1554
   376.16         205.1388
   376.30         203.9611
   376.44         201.8818
   376.58         199.3495
   376.72         196.8749
   376.86         194.9063
   377.00         193.7953
   377.14         193.7826
   377.28         194.9492
   377.42         197.2198
   377.56         200.3894
   377.70         204.1198
   377.84         207.9873
   377.98         211.5672
   378.12         214.4617
   378.26         216.3321
   378.40         216.9580
   378.54         216.2669
   378.68         214.3350
   378.82         211.3726
   378.96         207.6997
   379.10         203.6877
   379.24         199.7013
   379.38         196.0680
   379.52         193.0679
   379.66         190.9515
   379.80         189.9381
   379.94         190.1842
   380.08         191.7308
   380.22         194.4589
   380.36         198.0983
   380.50         202.2648
   380.64         206.4969
   380.78         210.3185
   380.92         213.3291
   381.06         215.2815
   381.20         216.1220
   381.34         215.9785
   381.48         215.0878
   381.62         213.7086
   381.76         212.0574
   381.90         210.2773
   382.04         208.4303
   382.18         206.4975
   382.32         204.3877
   382.46         201.9823
   382.60         199.2125
   382.74         196.1060
   382.88         192.7963
   383.02         189.5082
   383.16         186.5152
   383.30         184.1198
   383.44         182.6210
   383.58         182.2571
   383.72         183.1627
   383.86         185.3282
   384.00         188.5722
   384.14         192.5792
   384.28         196.9852
   384.42         201.4095
   384.56         205.4805
   384.70         208.9098
   384.84         211.5448
   384.98         213.3798
   385.12         214.5433
   385.26         215.2347
   385.40         215.6246
   385.54         215.8046
   385.68         215.8133
   385.82         215.6720
   385.96         215.3926
   386.10         214.9790
   386.24         214.4430
   386.38         213.8008
   386.52         213.0601
   386.66         212.2419
   386.80         211.3823
   386.94         210.4858
   387.08         209.4973
   387.22         208.3408
   387.36         206.9335
   387.50         205.1528
   387.64         202.8575
   387.78         199.9585
   387.92         196.4764
   388.06         192.5613
   388.20         188.4665
   388.34         184.4958
   388.48         180.9540
   388.62         178.1269
   388.76         176.2673
   388.90         175.5473
   389.04         176.0313
   389.18         177.6803
   389.32         180.3350
   389.46         183.7191
   389.60         187.5111
   389.74         191.4217
   389.88         195.1878
   390.02         198.5802
   390.16         201.4682
   390.30         203.8331
   390.44         205.7257
   390.58         207.2118
   390.72         208.3406
   390.86         209.1241
   391.00         209.5251
   391.14         209.5033
   391.28         209.0520
   391.42         208.1780
   391.56         206.9157
   391.70         205.3723
   391.84         203.7034
   391.98         202.0276
   392.12         200.4186
   392.26         198.9626
   392.40         197.7575
   392.54         196.8789
   392.68         196.4002
   392.82         196.3725
   392.96         196.7704
   393.10         197.5074
   393.24         198.4796
   393.38         199.5918
   393.52         200.7435
   393.66         201.8329
   393.80         202.7953
   393.94         203.5937
   394.08         204.1891
   394.22         204.5462
   394.36         204.6448
   394.50         204.4476
   394.64         203.9077
   394.78         203.0462
   394.92         201.9436
   395.06         200.6588
   395.20         199.1896
   395.34         197.4787
   395.48         195.4123
   395.62         192.8254
   395.76         189.5623
   395.90         185.5742
   396.04         180.9679
   396.18         175.9841
   396.32         170.9611
   396.46         166.2824
   396.60         162.3075
   396.74         159.3366
   396.88         157.6051
   397.02         157.2521
   397.16         158.2659
   397.30         160.5024
   397.44         163.7303
   397.58         167.6419
   397.72         171.8908
   397.86         176.1386
   398.00         180.0895
   398.14         183.5172
   398.28         186.2903
   398.42         188.4002
   398.56         189.9421
   398.70         191.0255
   398.84         191.7182
   398.98         192.0648
   399.12         192.1090
   399.26         191.8880
   399.40         191.4288
   399.54         190.7591
   399.68         189.8985
   399.82         188.8624
   399.96         187.7008
   400.10         186.5029
   400.24         185.3636
   400.38         184.3716
   400.52         183.6019
   400.66         183.0896
   400.80         182.8094
   400.94         182.6908
   401.08         182.6377
   401.22         182.5209
   401.36         182.1899
   401.50         181.5300
   401.64         180.5156
   401.78         179.2010
   401.92         177.6752
   402.06         176.0573
   402.20         174.5177
   402.34         173.2425
   402.48         172.4011
   402.62         172.1334
   402.76         172.5017
   402.90         173.4526
   403.04         174.8355
   403.18         176.4524
   403.32         178.0932
   403.46         179.5708
   403.60         180.7358
   403.74         181.4805
   403.88         181.7773
   404.02         181.6978
   404.16         181.3789
   404.30         180.9664
   404.44         180.5496
   404.58         180.1651
   404.72         179.8443
   404.86         179.6070
   405.00         179.4279
   405.14         179.2464
   405.28         179.0092
   405.42         178.6930
   405.56         178.2813
   405.70         177.7486
   405.84         177.0722
   405.98         176.2445
   406.12         175.2796
   406.26         174.1883
   406.40         172.9926
   406.54         171.7562
   406.68         170.5423
   406.82         169.3876
   406.96         168.3217
   407.10         167.3778
   407.24         166.5954
   407.38         165.9918
   407.52         165.5424
   407.66         165.2130
   407.80         164.9829
   407.94         164.8293
   408.08         164.6978
   408.22         164.5012
   408.36         164.1604
   408.50         163.6132
   408.64         162.7879
   408.78         161.5838
   408.92         159.8887
   409.06         157.6577
   409.20         154.9383
   409.34         151.8373
   409.48         148.5366
   409.62         145.2908
   409.76         142.3787
   409.90         140.0544
   410.04         138.5180
   410.18         137.9268
   410.32         138.3705
   410.46         139.8116
   410.60         142.0827
   410.74         144.9369
   410.88         148.0897
   411.02         151.2381
   411.16         154.0926
   411.30         156.4466
   411.44         158.2068
   411.58         159.3787
   411.72         160.0562
   411.86         160.3731
   412.00         160.4680
   412.14         160.4684
   412.28         160.4621
   412.42         160.4940
   412.56         160.5622
   412.70         160.6351
   412.84         160.6837
   412.98         160.6503
   413.12         160.4477
   413.26         160.0210
   413.40         159.3807
   413.54         158.6007
   413.68         157.7814
   413.82         157.0210
   413.96         156.4112
   414.10         156.0174
   414.24         155.8830
   414.38         156.0292
   414.52         156.4301
   414.66         157.0271
   414.80         157.7358
   414.94         158.4432
   415.08         159.0324
   415.22         159.4025
   415.36         159.4975
   415.50         159.3212
   415.64         158.9108
   415.78         158.3261
   415.92         157.6573
   416.06         157.0150
   416.20         156.4938
   416.34         156.1389
   416.48         155.9606
   416.62         155.9525
   416.76         156.0792
   416.90         156.2809
   417.04         156.4804
   417.18         156.5992
   417.32         156.5912
   417.46         156.4359
   417.60         156.1130
   417.74         155.6157
   417.88         154.9808
   418.02         154.2855
   418.16         153.6162
   418.30         153.0379
   418.44         152.5929
   418.58         152.3104
   418.72         152.2062
   418.86         152.2727
   419.00         152.4674
   419.14         152.7309
   419.28         153.0027
   419.42         153.2235
   419.56         153.3500
   419.70         153.3627
   419.84         153.2628
   419.98         153.0623
   420.12         152.7694
   420.26         152.3998
   420.40         152.0069
   420.54         151.6585
   420.68         151.3915
   420.82         151.2083
   420.96         151.0874
   421.10         150.9903
   421.24         150.8858
   421.38         150.7741
   421.52         150.6586
   421.66         150.5288
   421.80         150.3862
   421.94         150.2400
   422.08         150.0925
   422.22         149.9468
   422.36         149.8103
   422.50         149.6895
   422.64         149.5897
   422.78         149.5219
   422.92         149.5031
   423.06         149.5347
   423.20         149.6021
   423.34         149.6888
   423.48         149.7700
   423.62         149.8076
   423.76         149.7704
   423.90         149.6494
   424.04         149.4392
   424.18         149.1172
   424.32         148.6706
   424.46         148.1152
   424.60         147.4801
   424.74         146.8047
   424.88         146.1371
   425.02         145.5181
   425.16         144.9687
   425.30         144.4924
   425.44         144.0780
   425.58         143.7071
   425.72         143.3695
   425.86         143.0738
   426.00         142.8262
   426.14         142.6123
   426.28         142.4055
   426.42         142.1810
   426.56         141.9329
   426.70         141.6718
   426.84         141.4120
   426.98         141.1701
   427.12         140.9529
   427.26         140.7519
   427.40         140.5553
   427.54         140.3598
   427.68         140.1808
   427.82         140.0478
   427.96         139.9805
   428.10         139.9805
   428.24         140.0418
   428.38         140.1576
   428.52         140.3076
   428.66         140.4505
   428.80         140.5505
   428.94         140.5952
   429.08         140.5914
   429.22         140.5600
   429.36         140.5155
   429.50         140.4569
   429.64         140.3771
   429.78         140.2695
   429.92         140.1440
   430.06         140.0294
   430.20         139.9489
   430.34         139.8988
   430.48         139.8398
   430.62         139.7179
   430.76         139.5006
   430.90         139.1804
   431.04         138.7661
   431.18         138.2816
   431.32         137.7766
   431.46         137.3101
   431.60         136.9069
   431.74         136.5728
   431.88         136.3104
   432.02         136.1026
   432.16         135.9148
   432.30         135.7010
   432.44         135.4020
   432.58         134.9333
   432.72         134.1719
   432.86         132.9776
   433.00         131.2494
   433.14         128.9834
   433.28         126.2890
   433.42         123.3501
   433.56         120.3767
   433.70         117.5884
   433.84         115.2032
   433.98         113.4037
   434.12         112.2951
   434.26         111.9248
   434.40         112.3207
   434.54         113.4538
   434.68         115.2110
   434.82         117.4212
   434.96         119.8878
   435.10         122.4169
   435.24         124.8335
   435.38         127.0025
   435.52         128.8573
   435.66         130.3970
   435.80         131.6510
   435.94         132.6361
   436.08         133.3547
   436.22         133.8219
   436.36         134.0697
   436.50         134.1436
   436.64         134.0957
   436.78         133.9831
   436.92         133.8744
   437.06         133.8069
   437.20         133.7648
   437.34         133.7182
   437.48         133.6345
   437.62         133.4716
   437.76         133.1886
   437.90         132.7650
   438.04         132.2172
   438.18         131.5964
   438.32         130.9696
   438.46         130.4031
   438.60         129.9625
   438.74         129.7226
   438.88         129.7367
   439.02         130.0034
   439.16         130.4896
   439.30         131.1427
   439.44         131.8804
   439.58         132.5959
   439.72         133.1825
   439.86         133.5697
   440.00         133.7153
   440.14         133.5952
   440.28         133.2115
   440.42         132.5898
   440.56         131.7721
   440.70         130.8029
   440.84         129.7302
   440.98         128.6059
   441.12         127.4745
   441.26         126.3780
   441.40         125.3559
   441.54         124.4249
   441.68         123.5854
   441.82         122.8414
   441.96         122.1838
   442.10         121.5815
   442.24         121.0147
   442.38         120.4959
   442.52         120.0396
   442.66         119.6468
   442.80         119.3253
   442.94         119.0970
   443.08         119.0023
   443.22         119.0912
   443.36         119.3973
   443.50         119.9244
   443.64         120.6341
   443.78         121.4672
   443.92         122.3723
   444.06         123.2929
   444.20         124.1554
   444.34         124.8972
   444.48         125.4940
   444.62         125.9413
   444.76         126.2419
   444.90         126.4248
   445.04         126.5349
   445.18         126.6043
   445.32         126.6474
   445.46         126.6596
   445.60         126.6125
   445.74         126.4317
   445.88         126.0057
   446.02         125.2567
   446.16         124.1879
   446.30         122.8710
   446.44         121.4154
   446.58         119.9387
   446.72         118.5515
   446.86         117.3584
   447.00         116.4629
   447.14         115.9505
   447.28         115.8607
   447.42         116.1927
   447.56         116.9128
   447.70         117.9447
   447.84         119.1804
   447.98         120.4962
   448.12         121.7665
   448.26         122.8859
   448.40         123.7880
   448.54         124.4683
   448.68         124.9755
   448.82         125.3595
   448.96         125.6413
   449.10         125.8285
   449.24         125.9256
   449.38         125.9321
   449.52         125.8654
   449.66         125.7708
   449.80         125.6937
   449.94         125.6601
   450.08         125.6735
   450.22         125.7190
   450.36         125.7874
   450.50         125.8769
   450.64         125.9723
   450.78         126.0499
   450.92         126.0986
   451.06         126.1239
   451.20         126.1334
   451.34         126.1294
   451.48         126.1157
   451.62         126.1014
   451.76         126.0892
   451.90         126.0677
   452.04         126.0223
   452.18         125.9404
   452.32         125.8073
   452.46         125.6082
   452.60         125.3444
   452.74         125.0407
   452.88         124.7297
