# File BD-145030
# Wavelength [nm]    Normalized Amplitude
   349.70         538.0843
   349.84         535.3583
   349.98         531.1839
   350.12         525.7715
   350.26         519.5493
   350.40         513.0074
   350.54         506.5891
   350.68         500.8235
   350.82         496.2948
   350.96         493.4266
   351.10         492.4443
   351.24         493.4266
   351.38         496.2948
   351.52         500.8235
   351.66         506.5891
   351.80         513.0074
   351.94         519.5493
   352.08         525.7715
   352.22         531.1839
   352.36         535.3583
   352.50         538.0843
   352.64         539.3085
   352.78         539.1268
   352.92         537.7061
   353.06         535.2100
   353.20         532.0125
   353.34         528.6881
   353.48         525.7422
   353.62         523.4678
   353.76         521.9649
   353.90         521.2046
   354.04         521.0159
   354.18         521.1292
   354.32         521.3409
   354.46         521.6712
   354.60         522.3161
   354.74         523.4662
   354.88         525.1480
   355.02         527.2210
   355.16         529.6104
   355.30         532.3384
   355.44         535.3069
   355.58         538.2610
   355.72         540.9879
   355.86         543.2855
   356.00         544.7790
   356.14         545.1720
   356.28         544.4480
   356.42         542.7573
   356.56         540.3899
   356.70         537.6727
   356.84         534.8176
   356.98         531.9892
   357.12         529.3960
   357.26         527.2254
   357.40         525.5043
   357.54         524.1019
   357.68         522.9613
   357.82         522.1493
   357.96         521.5542
   358.10         520.8344
   358.24         519.7414
   358.38         518.2709
   358.52         516.5760
   358.66         514.9032
   358.80         513.4980
   358.94         512.4000
   359.08         511.5170
   359.22         510.9194
   359.36         510.6785
   359.50         510.6072
   359.64         510.4521
   359.78         510.0795
   359.92         509.4078
   360.06         508.3590
   360.20         506.9895
   360.34         505.4999
   360.48         504.0431
   360.62         502.7450
   360.76         501.8273
   360.90         501.5145
   361.04         501.8397
   361.18         502.5631
   361.32         503.3029
   361.46         503.7061
   361.60         503.5542
   361.74         502.7925
   361.88         501.3758
   362.02         499.1575
   362.16         496.0599
   362.30         492.2686
   362.44         488.2129
   362.58         484.4079
   362.72         481.2857
   362.86         479.1088
   363.00         477.9500
   363.14         477.8283
   363.28         478.7395
   363.42         480.5109
   363.56         482.9354
   363.70         485.9408
   363.84         489.4779
   363.98         493.4716
   364.12         497.8099
   364.26         502.2327
   364.40         506.3232
   364.54         509.6711
   364.68         512.0493
   364.82         513.3525
   364.96         513.5284
   365.10         512.6445
   365.24         510.8234
   365.38         508.1393
   365.52         504.7444
   365.66         501.0068
   365.80         497.3604
   365.94         494.0444
   366.08         491.1658
   366.22         488.8526
   366.36         487.1177
   366.50         485.7870
   366.64         484.6759
   366.78         483.6819
   366.92         482.7309
   367.06         481.7662
   367.20         480.8144
   367.34         479.9975
   367.48         479.4494
   367.62         479.3048
   367.76         479.6973
   367.90         480.6433
   368.04         482.0523
   368.18         483.9538
   368.32         486.5005
   368.46         489.5872
   368.60         492.7867
   368.74         495.6944
   368.88         498.0887
   369.02         499.9291
   369.16         501.1801
   369.30         501.6507
   369.44         501.2022
   369.58         499.9475
   369.72         498.1485
   369.86         496.0354
   370.00         493.7415
   370.14         491.4207
   370.28         489.3478
   370.42         487.8536
   370.56         487.2831
   370.70         487.9097
   370.84         489.8003
   370.98         492.6920
   371.12         496.0343
   371.26         499.4767
   371.40         503.1441
   371.54         507.3637
   371.68         512.3367
   371.82         517.9665
   371.96         523.9626
   372.10         529.9236
   372.24         535.2324
   372.38         539.1830
   372.52         541.2857
   372.66         541.5145
   372.80         540.3465
   372.94         538.4489
   373.08         536.4168
   373.22         534.7812
   373.36         533.9278
   373.50         534.0291
   373.64         535.0909
   373.78         536.9471
   373.92         539.2640
   374.06         541.6269
   374.20         543.6760
   374.34         545.0954
   374.48         545.6128
   374.62         545.1622
   374.76         544.0130
   374.90         542.8127
   375.04         542.3381
   375.18         543.1093
   375.32         545.3800
   375.46         549.1581
   375.60         554.0494
   375.74         559.2286
   375.88         563.5579
   376.02         565.8696
   376.16         565.3712
   376.30         561.9705
   376.44         556.2172
   376.58         549.1083
   376.72         541.9788
   376.86         536.0951
   377.00         532.2894
   377.14         531.0424
   377.28         532.6113
   377.42         537.0064
   377.56         543.9395
   377.70         552.7947
   377.84         562.7800
   377.98         573.0974
   378.12         582.8588
   378.26         591.0869
   378.40         596.8968
   378.54         599.6593
   378.68         599.1275
   378.82         595.4682
   378.96         589.1786
   379.10         580.9380
   379.24         571.5484
   379.38         561.9292
   379.52         553.0111
   379.66         545.6727
   379.80         540.7520
   379.94         538.8925
   380.08         540.3132
   380.22         544.7750
   380.36         551.6849
   380.50         560.2038
   380.64         569.2894
   380.78         577.7933
   380.92         584.6762
   381.06         589.2275
   381.20         591.2594
   381.34         591.0892
   381.48         589.2883
   381.62         586.4299
   381.76         582.9163
   381.90         578.9409
   382.04         574.5197
   382.18         569.4797
   382.32         563.4956
   382.46         556.2988
   382.60         547.9075
   382.74         538.6589
   382.88         529.1212
   383.02         519.9842
   383.16         511.9695
   383.30         505.8143
   383.44         502.2147
   383.58         501.7353
   383.72         504.6878
   383.86         510.9564
   384.00         519.9131
   384.14         530.5620
   384.28         541.7877
   384.42         552.5406
   384.56         561.9712
   384.70         569.4445
   384.84         574.5617
   384.98         577.2795
   385.12         577.9231
   385.26         577.0338
   385.40         575.1292
   385.54         572.5623
   385.68         569.6166
   385.82         566.6286
   385.96         563.9295
   386.10         561.7464
   386.24         560.2287
   386.38         559.4309
   386.52         559.2773
   386.66         559.6328
   386.80         560.3634
   386.94         561.3403
   387.08         562.3909
   387.22         563.2297
   387.36         563.4026
   387.50         562.2991
   387.64         559.3192
   387.78         554.0882
   387.92         546.6085
   388.06         537.3299
   388.20         527.0860
   388.34         516.9526
   388.48         508.0217
   388.62         501.2299
   388.76         497.3031
   388.90         496.6510
   389.04         499.3361
   389.18         505.0915
   389.32         513.2900
   389.46         523.0334
   389.60         533.3254
   389.74         543.1835
   389.88         551.6920
   390.02         558.1876
   390.16         562.4612
   390.30         564.7421
   390.44         565.5215
   390.58         565.3243
   390.72         564.6118
   390.86         563.6926
   391.00         562.6109
   391.14         561.2367
   391.28         559.3946
   391.42         556.8992
   391.56         553.6790
   391.70         549.9000
   391.84         545.8363
   391.98         541.6189
   392.12         537.2344
   392.26         532.7345
   392.40         528.3075
   392.54         524.2242
   392.68         520.8740
   392.82         518.6184
   392.96         517.6000
   393.10         517.8208
   393.24         519.2201
   393.38         521.7076
   393.52         525.0920
   393.66         529.0423
   393.80         533.2096
   393.94         537.2977
   394.08         541.0618
   394.22         544.2807
   394.36         546.7247
   394.50         548.1068
   394.64         548.1693
   394.78         546.9477
   394.92         544.7613
   395.06         541.9090
   395.20         538.4875
   395.34         534.4139
   395.48         529.4053
   395.62         522.9785
   395.76         514.6490
   395.90         504.2270
   396.04         492.0144
   396.18         478.7871
   396.32         465.6410
   396.46         453.7642
   396.60         444.2091
   396.74         437.7772
   396.88         434.9864
   397.02         436.0046
   397.16         440.5589
   397.30         448.0280
   397.44         457.5832
   397.58         468.2586
   397.72         479.0786
   397.86         489.1509
   398.00         497.7078
   398.14         504.2078
   398.28         508.4644
   398.42         510.7245
   398.56         511.5670
   398.70         511.5929
   398.84         511.2073
   398.98         510.5928
   399.12         509.7367
   399.26         508.5209
   399.40         506.8499
   399.54         504.7105
   399.68         502.1388
   399.82         499.2184
   399.96         496.1209
   400.10         493.0837
   400.24         490.3541
   400.38         488.1399
   400.52         486.5931
   400.66         485.7933
   400.80         485.7181
   400.94         486.2737
   401.08         487.2763
   401.22         488.3881
   401.36         489.1690
   401.50         489.2198
   401.64         488.3257
   401.78         486.5198
   401.92         484.0370
   402.06         481.2327
   402.20         478.5128
   402.34         476.2556
   402.48         474.7988
   402.62         474.4180
   402.76         475.2244
   402.90         477.0984
   403.04         479.7275
   403.18         482.7280
   403.32         485.7195
   403.46         488.3828
   403.60         490.4987
   403.74         491.8901
   403.88         492.4822
   404.02         492.4073
   404.16         491.9379
   404.30         491.3706
   404.44         490.8788
   404.58         490.4457
   404.72         489.9652
   404.86         489.3550
   405.00         488.5598
   405.14         487.4943
   405.28         486.0901
   405.42         484.4047
   405.56         482.5857
   405.70         480.7897
   405.84         479.1718
   405.98         477.8607
   406.12         476.8982
   406.26         476.1752
   406.40         475.5026
   406.54         474.7436
   406.68         473.7868
   406.82         472.5092
   406.96         470.8218
   407.10         468.7055
   407.24         466.2387
   407.38         463.5490
   407.52         460.7707
   407.66         458.0772
   407.80         455.6629
   407.94         453.6766
   408.08         452.1500
   408.22         450.9731
   408.36         449.9760
   408.50         448.9624
   408.64         447.6500
   408.78         445.6189
   408.92         442.3672
   409.06         437.5692
   409.20         431.2406
   409.34         423.6841
   409.48         415.4670
   409.62         407.3687
   409.76         400.2435
   409.90         394.8591
   410.04         391.7607
   410.18         391.2853
   410.32         393.5243
   410.46         398.1778
   410.60         404.6065
   410.74         412.0593
   410.88         419.7775
   411.02         426.9882
   411.16         432.9691
   411.30         437.2082
   411.44         439.4980
   411.58         439.9260
   411.72         438.8513
   411.86         436.7766
   412.00         434.2208
   412.14         431.6574
   412.28         429.4244
   412.42         427.6825
   412.56         426.4125
   412.70         425.5123
   412.84         424.9221
   412.98         424.5324
   413.12         424.1427
   413.26         423.5944
   413.40         422.8323
   413.54         421.8896
   413.68         420.8747
   413.82         419.9512
   413.96         419.2928
   414.10         419.0071
   414.24         419.1634
   414.38         419.8413
   414.52         421.0517
   414.66         422.6989
   414.80         424.5890
   414.94         426.4500
   415.08         427.9954
   415.22         428.9742
   415.36         429.2466
   415.50         428.8067
   415.64         427.7050
   415.78         426.0465
   415.92         424.0437
   416.06         421.9787
   416.20         420.1111
   416.34         418.6222
   416.48         417.6073
   416.62         417.0596
   416.76         416.8798
   416.90         416.9638
   417.04         417.1959
   417.18         417.4202
   417.32         417.5463
   417.46         417.5665
   417.60         417.4249
   417.74         417.0216
   417.88         416.3468
   418.02         415.5054
   418.16         414.6337
   418.30         413.8296
   418.44         413.1743
   418.58         412.7491
   418.72         412.6050
   418.86         412.7530
   419.00         413.1548
   419.14         413.7125
   419.28         414.2760
   419.42         414.7188
   419.56         415.0054
   419.70         415.1287
   419.84         415.0764
   419.98         414.8570
   420.12         414.4752
   420.26         413.9498
   420.40         413.3933
   420.54         412.9574
   420.68         412.6986
   420.82         412.5748
   420.96         412.4954
   421.10         412.3263
   421.24         411.9486
   421.38         411.3662
   421.52         410.6530
   421.66         409.8600
   421.80         409.0212
   421.94         408.1471
   422.08         407.2529
   422.22         406.3759
   422.36         405.5212
   422.50         404.6603
   422.64         403.7722
   422.78         402.8695
   422.92         401.9942
   423.06         401.1716
   423.20         400.4030
   423.34         399.7057
   423.48         399.1024
   423.62         398.5883
   423.76         398.1611
   423.90         397.8718
   424.04         397.7857
   424.18         397.8860
   424.32         398.0948
   424.46         398.3423
   424.60         398.5913
   424.74         398.8539
   424.88         399.1653
   425.02         399.5244
   425.16         399.8921
   425.30         400.2241
   425.44         400.4625
   425.58         400.5227
   425.72         400.3301
   425.86         399.8700
   426.00         399.1584
   426.14         398.1880
   426.28         396.9412
   426.42         395.4274
   426.56         393.7095
   426.70         391.8996
   426.84         390.1294
   426.98         388.5249
   427.12         387.1754
   427.26         386.1419
   427.40         385.4779
   427.54         385.2017
   427.68         385.2939
   427.82         385.7348
   427.96         386.4878
   428.10         387.4636
   428.24         388.5489
   428.38         389.6861
   428.52         390.8654
   428.66         392.0351
   428.80         393.1103
   428.94         394.0109
   429.08         394.6771
   429.22         395.0886
   429.36         395.2273
   429.50         395.0528
   429.64         394.5207
   429.78         393.6069
   429.92         392.3637
   430.06         390.9312
   430.20         389.4589
   430.34         388.0641
   430.48         386.8199
   430.62         385.7374
   430.76         384.8038
   430.90         384.0276
   431.04         383.4300
   431.18         382.9842
   431.32         382.6478
   431.46         382.4201
   431.60         382.2839
   431.74         382.2185
   431.88         382.2208
   432.02         382.2570
   432.16         382.2749
   432.30         382.2197
   432.44         381.9917
   432.58         381.3889
   432.72         380.0775
   432.86         377.6441
   433.00         373.7615
   433.14         368.3706
   433.28         361.7318
   433.42         354.3370
   433.56         346.7884
   433.70         339.7280
   433.84         333.7930
   433.98         329.5355
   434.12         327.2756
   434.26         327.1123
   434.40         329.0466
   434.54         332.9171
   434.68         338.3370
   434.82         344.7737
   434.96         351.6276
   435.10         358.2810
   435.24         364.1730
   435.38         368.9275
   435.52         372.4521
   435.66         374.8923
   435.80         376.4952
   435.94         377.4826
   436.08         378.0101
   436.22         378.1916
   436.36         378.1043
   436.50         377.8205
   436.64         377.4179
   436.78         376.9723
   436.92         376.5898
   437.06         376.3121
   437.20         376.0422
   437.34         375.6510
   437.48         375.0238
   437.62         374.0221
   437.76         372.5138
   437.90         370.4560
   438.04         367.9409
   438.18         365.1517
   438.32         362.2826
   438.46         359.5248
   438.60         357.0878
   438.74         355.1863
   438.88         353.9617
   439.02         353.4428
   439.16         353.6080
   439.30         354.3882
   439.44         355.6154
   439.58         357.0462
   439.72         358.4426
   439.86         359.6476
   440.00         360.5585
   440.14         361.1093
   440.28         361.2972
   440.42         361.1639
   440.56         360.7573
   440.70         360.0810
   440.84         359.0929
   440.98         357.7370
   441.12         355.9663
   441.26         353.7728
   441.40         351.1834
   441.54         348.2238
   441.68         344.9419
   441.82         341.4481
   441.96         337.8810
   442.10         334.3662
   442.24         331.0544
   442.38         328.1394
   442.52         325.7745
   442.66         324.0323
   442.80         322.9493
   442.94         322.5502
   443.08         322.8766
   443.22         323.9651
   443.36         325.7824
   443.50         328.2091
   443.64         331.0382
   443.78         334.0529
   443.92         337.0874
   444.06         339.9744
   444.20         342.5252
   444.34         344.5982
   444.48         346.1581
   444.62         347.2247
   444.76         347.8355
   444.90         348.1032
   445.04         348.1941
   445.18         348.2562
   445.32         348.3867
   445.46         348.6012
   445.60         348.8457
   445.74         348.9651
   445.88         348.6619
   446.02         347.6546
   446.16         345.8634
   446.30         343.4047
   446.44         340.5077
   446.58         337.4184
   446.72         334.3461
   446.86         331.4827
   447.00         329.0338
   447.14         327.2037
   447.28         326.1483
   447.42         325.9833
   447.56         326.7523
   447.70         328.3720
   447.84         330.6620
   447.98         333.3604
   448.12         336.1602
   448.26         338.8072
   448.40         341.1381
   448.54         343.1002
   448.68         344.7524
   448.82         346.1530
   448.96         347.2800
   449.10         348.0874
   449.24         348.5525
   449.38         348.6828
   449.52         348.5629
   449.66         348.3606
   449.80         348.2301
   449.94         348.2325
   450.08         348.3289
   450.22         348.4271
   450.36         348.4761
   450.50         348.4734
   450.64         348.4088
   450.78         348.2610
   450.92         348.0118
   451.06         347.6560
   451.20         347.2027
   451.34         346.6559
   451.48         346.0214
   451.62         345.3353
   451.76         344.6390
   451.90         343.9450
   452.04         343.2311
   452.18         342.4521
   452.32         341.5781
   452.46         340.6054
   452.60         339.5684
   452.74         338.5611
   452.88         337.6873
