# File FEIGE41
# Wavelength [nm]    Normalized Amplitude
   349.70         2.4991
   349.84         2.5253
   349.98         2.5468
   350.12         2.5624
   350.26         2.5724
   350.40         2.5781
   350.54         2.5806
   350.68         2.5809
   350.82         2.5800
   350.96         2.5789
   351.10         2.5784
   351.24         2.5789
   351.38         2.5800
   351.52         2.5809
   351.66         2.5806
   351.80         2.5781
   351.94         2.5724
   352.08         2.5624
   352.22         2.5468
   352.36         2.5253
   352.50         2.4991
   352.64         2.4705
   352.78         2.4415
   352.92         2.4136
   353.06         2.3884
   353.20         2.3672
   353.34         2.3513
   353.48         2.3417
   353.62         2.3391
   353.76         2.3433
   353.90         2.3533
   354.04         2.3673
   354.18         2.3829
   354.32         2.3974
   354.46         2.4085
   354.60         2.4148
   354.74         2.4160
   354.88         2.4123
   355.02         2.4045
   355.16         2.3934
   355.30         2.3794
   355.44         2.3627
   355.58         2.3447
   355.72         2.3275
   355.86         2.3128
   356.00         2.3015
   356.14         2.2940
   356.28         2.2896
   356.42         2.2867
   356.56         2.2836
   356.70         2.2789
   356.84         2.2718
   356.98         2.2619
   357.12         2.2488
   357.26         2.2319
   357.40         2.2104
   357.54         2.1840
   357.68         2.1535
   357.82         2.1203
   357.96         2.0867
   358.10         2.0555
   358.24         2.0297
   358.38         2.0111
   358.52         2.0008
   358.66         1.9987
   358.80         2.0038
   358.94         2.0157
   359.08         2.0348
   359.22         2.0611
   359.36         2.0935
   359.50         2.1302
   359.64         2.1684
   359.78         2.2058
   359.92         2.2399
   360.06         2.2690
   360.20         2.2917
   360.34         2.3068
   360.48         2.3136
   360.62         2.3115
   360.76         2.3008
   360.90         2.2827
   361.04         2.2591
   361.18         2.2323
   361.32         2.2051
   361.46         2.1801
   361.60         2.1604
   361.74         2.1476
   361.88         2.1417
   362.02         2.1414
   362.16         2.1450
   362.30         2.1512
   362.44         2.1590
   362.58         2.1678
   362.72         2.1778
   362.86         2.1887
   363.00         2.2000
   363.14         2.2105
   363.28         2.2191
   363.42         2.2256
   363.56         2.2293
   363.70         2.2300
   363.84         2.2270
   363.98         2.2202
   364.12         2.2100
   364.26         2.1971
   364.40         2.1826
   364.54         2.1675
   364.68         2.1530
   364.82         2.1401
   364.96         2.1302
   365.10         2.1242
   365.24         2.1231
   365.38         2.1269
   365.52         2.1347
   365.66         2.1452
   365.80         2.1571
   365.94         2.1695
   366.08         2.1810
   366.22         2.1900
   366.36         2.1955
   366.50         2.1972
   366.64         2.1955
   366.78         2.1916
   366.92         2.1865
   367.06         2.1813
   367.20         2.1762
   367.34         2.1713
   367.48         2.1669
   367.62         2.1630
   367.76         2.1602
   367.90         2.1592
   368.04         2.1609
   368.18         2.1656
   368.32         2.1730
   368.46         2.1826
   368.60         2.1932
   368.74         2.2041
   368.88         2.2151
   369.02         2.2263
   369.16         2.2375
   369.30         2.2473
   369.44         2.2544
   369.58         2.2581
   369.72         2.2582
   369.86         2.2552
   370.00         2.2501
   370.14         2.2446
   370.28         2.2407
   370.42         2.2407
   370.56         2.2468
   370.70         2.2594
   370.84         2.2773
   370.98         2.2985
   371.12         2.3208
   371.26         2.3424
   371.40         2.3627
   371.54         2.3830
   371.68         2.4046
   371.82         2.4278
   371.96         2.4517
   372.10         2.4749
   372.24         2.4952
   372.38         2.5103
   372.52         2.5188
   372.66         2.5207
   372.80         2.5178
   372.94         2.5131
   373.08         2.5097
   373.22         2.5101
   373.36         2.5155
   373.50         2.5261
   373.64         2.5404
   373.78         2.5556
   373.92         2.5686
   374.06         2.5765
   374.20         2.5768
   374.34         2.5676
   374.48         2.5488
   374.62         2.5228
   374.76         2.4944
   374.90         2.4698
   375.04         2.4556
   375.18         2.4571
   375.32         2.4779
   375.46         2.5176
   375.60         2.5716
   375.74         2.6319
   375.88         2.6890
   376.02         2.7341
   376.16         2.7610
   376.30         2.7674
   376.44         2.7551
   376.58         2.7301
   376.72         2.7010
   376.86         2.6781
   377.00         2.6719
   377.14         2.6912
   377.28         2.7414
   377.42         2.8235
   377.56         2.9335
   377.70         3.0641
   377.84         3.2049
   377.98         3.3439
   378.12         3.4672
   378.26         3.5616
   378.40         3.6165
   378.54         3.6260
   378.68         3.5896
   378.82         3.5117
   378.96         3.4010
   379.10         3.2692
   379.24         3.1308
   379.38         3.0018
   379.52         2.8981
   379.66         2.8337
   379.80         2.8187
   379.94         2.8574
   380.08         2.9481
   380.22         3.0849
   380.36         3.2586
   380.50         3.4577
   380.64         3.6694
   380.78         3.8800
   380.92         4.0769
   381.06         4.2497
   381.20         4.3910
   381.34         4.4965
   381.48         4.5640
   381.62         4.5932
   381.76         4.5840
   381.90         4.5367
   382.04         4.4519
   382.18         4.3305
   382.32         4.1747
   382.46         3.9886
   382.60         3.7793
   382.74         3.5575
   382.88         3.3374
   383.02         3.1351
   383.16         2.9659
   383.30         2.8418
   383.44         2.7703
   383.58         2.7555
   383.72         2.7983
   383.86         2.8963
   384.00         3.0445
   384.14         3.2344
   384.28         3.4543
   384.42         3.6904
   384.56         3.9292
   384.70         4.1593
   384.84         4.3729
   384.98         4.5661
   385.12         4.7378
   385.26         4.8883
   385.40         5.0190
   385.54         5.1311
   385.68         5.2248
   385.82         5.2992
   385.96         5.3534
   386.10         5.3874
   386.24         5.4020
   386.38         5.3981
   386.52         5.3757
   386.66         5.3331
   386.80         5.2677
   386.94         5.1764
   387.08         5.0574
   387.22         4.9108
   387.36         4.7376
   387.50         4.5398
   387.64         4.3199
   387.78         4.0816
   387.92         3.8314
   388.06         3.5785
   388.20         3.3342
   388.34         3.1108
   388.48         2.9209
   388.62         2.7756
   388.76         2.6839
   388.90         2.6515
   389.04         2.6805
   389.18         2.7685
   389.32         2.9093
   389.46         3.0935
   389.60         3.3097
   389.74         3.5454
   389.88         3.7885
   390.02         4.0276
   390.16         4.2539
   390.30         4.4617
   390.44         4.6490
   390.58         4.8155
   390.72         4.9619
   390.86         5.0898
   391.00         5.2020
   391.14         5.3012
   391.28         5.3891
   391.42         5.4669
   391.56         5.5349
   391.70         5.5922
   391.84         5.6368
   391.98         5.6662
   392.12         5.6782
   392.26         5.6721
   392.40         5.6492
   392.54         5.6123
   392.68         5.5650
   392.82         5.5120
   392.96         5.4588
   393.10         5.4108
   393.24         5.3724
   393.38         5.3464
   393.52         5.3336
   393.66         5.3312
   393.80         5.3342
   393.94         5.3364
   394.08         5.3316
   394.22         5.3142
   394.36         5.2796
   394.50         5.2247
   394.64         5.1484
   394.78         5.0517
   394.92         4.9367
   395.06         4.8047
   395.20         4.6560
   395.34         4.4906
   395.48         4.3087
   395.62         4.1109
   395.76         3.8980
   395.90         3.6725
   396.04         3.4395
   396.18         3.2066
   396.32         2.9842
   396.46         2.7845
   396.60         2.6191
   396.74         2.4977
   396.88         2.4279
   397.02         2.4140
   397.16         2.4565
   397.30         2.5521
   397.44         2.6939
   397.58         2.8724
   397.72         3.0766
   397.86         3.2955
   398.00         3.5199
   398.14         3.7423
   398.28         3.9566
   398.42         4.1583
   398.56         4.3448
   398.70         4.5155
   398.84         4.6701
   398.98         4.8087
   399.12         4.9318
   399.26         5.0401
   399.40         5.1350
   399.54         5.2181
   399.68         5.2912
   399.82         5.3559
   399.96         5.4135
   400.10         5.4650
   400.24         5.5105
   400.38         5.5499
   400.52         5.5838
   400.66         5.6131
   400.80         5.6376
   400.94         5.6565
   401.08         5.6693
   401.22         5.6763
   401.36         5.6786
   401.50         5.6774
   401.64         5.6744
   401.78         5.6700
   401.92         5.6648
   402.06         5.6591
   402.20         5.6535
   402.34         5.6477
   402.48         5.6415
   402.62         5.6347
   402.76         5.6276
   402.90         5.6201
   403.04         5.6121
   403.18         5.6038
   403.32         5.5948
   403.46         5.5847
   403.60         5.5735
   403.74         5.5622
   403.88         5.5517
   404.02         5.5429
   404.16         5.5352
   404.30         5.5276
   404.44         5.5188
   404.58         5.5086
   404.72         5.4973
   404.86         5.4852
   405.00         5.4723
   405.14         5.4584
   405.28         5.4437
   405.42         5.4281
   405.56         5.4116
   405.70         5.3932
   405.84         5.3725
   405.98         5.3492
   406.12         5.3237
   406.26         5.2959
   406.40         5.2652
   406.54         5.2302
   406.68         5.1900
   406.82         5.1445
   406.96         5.0942
   407.10         5.0396
   407.24         4.9811
   407.38         4.9189
   407.52         4.8532
   407.66         4.7837
   407.80         4.7098
   407.94         4.6305
   408.08         4.5441
   408.22         4.4476
   408.36         4.3381
   408.50         4.2135
   408.64         4.0722
   408.78         3.9133
   408.92         3.7364
   409.06         3.5431
   409.20         3.3377
   409.34         3.1276
   409.48         2.9221
   409.62         2.7319
   409.76         2.5677
   409.90         2.4397
   410.04         2.3566
   410.18         2.3244
   410.32         2.3455
   410.46         2.4178
   410.60         2.5361
   410.74         2.6928
   410.88         2.8784
   411.02         3.0827
   411.16         3.2957
   411.30         3.5078
   411.44         3.7107
   411.58         3.8978
   411.72         4.0649
   411.86         4.2101
   412.00         4.3330
   412.14         4.4342
   412.28         4.5161
   412.42         4.5819
   412.56         4.6353
   412.70         4.6796
   412.84         4.7176
   412.98         4.7517
   413.12         4.7843
   413.26         4.8175
   413.40         4.8530
   413.54         4.8914
   413.68         4.9317
   413.82         4.9725
   413.96         5.0115
   414.10         5.0467
   414.24         5.0766
   414.38         5.1000
   414.52         5.1166
   414.66         5.1267
   414.80         5.1312
   414.94         5.1310
   415.08         5.1272
   415.22         5.1209
   415.36         5.1130
   415.50         5.1046
   415.64         5.0969
   415.78         5.0902
   415.92         5.0851
   416.06         5.0814
   416.20         5.0788
   416.34         5.0767
   416.48         5.0746
   416.62         5.0719
   416.76         5.0683
   416.90         5.0633
   417.04         5.0569
   417.18         5.0488
   417.32         5.0389
   417.46         5.0272
   417.60         5.0143
   417.74         5.0007
   417.88         4.9869
   418.02         4.9730
   418.16         4.9591
   418.30         4.9458
   418.44         4.9339
   418.58         4.9237
   418.72         4.9152
   418.86         4.9079
   419.00         4.9018
   419.14         4.8972
   419.28         4.8950
   419.42         4.8962
   419.56         4.9014
   419.70         4.9108
   419.84         4.9232
   419.98         4.9375
   420.12         4.9522
   420.26         4.9657
   420.40         4.9766
   420.54         4.9838
   420.68         4.9866
   420.82         4.9847
   420.96         4.9784
   421.10         4.9687
   421.24         4.9566
   421.38         4.9434
   421.52         4.9301
   421.66         4.9176
   421.80         4.9069
   421.94         4.8985
   422.08         4.8918
   422.22         4.8863
   422.36         4.8810
   422.50         4.8760
   422.64         4.8721
   422.78         4.8702
   422.92         4.8708
   423.06         4.8740
   423.20         4.8788
   423.34         4.8834
   423.48         4.8863
   423.62         4.8860
   423.76         4.8807
   423.90         4.8696
   424.04         4.8524
   424.18         4.8301
   424.32         4.8044
   424.46         4.7770
   424.60         4.7494
   424.74         4.7226
   424.88         4.6981
   425.02         4.6772
   425.16         4.6612
   425.30         4.6504
   425.44         4.6442
   425.58         4.6412
   425.72         4.6401
   425.86         4.6398
   426.00         4.6398
   426.14         4.6400
   426.28         4.6411
   426.42         4.6438
   426.56         4.6485
   426.70         4.6554
   426.84         4.6646
   426.98         4.6763
   427.12         4.6914
   427.26         4.7104
   427.40         4.7331
   427.54         4.7589
   427.68         4.7861
   427.82         4.8121
   427.96         4.8340
   428.10         4.8491
   428.24         4.8556
   428.38         4.8525
   428.52         4.8399
   428.66         4.8181
   428.80         4.7882
   428.94         4.7514
   429.08         4.7093
   429.22         4.6643
   429.36         4.6186
   429.50         4.5745
   429.64         4.5333
   429.78         4.4956
   429.92         4.4611
   430.06         4.4292
   430.20         4.3994
   430.34         4.3714
   430.48         4.3453
   430.62         4.3212
   430.76         4.2986
   430.90         4.2765
   431.04         4.2532
   431.18         4.2269
   431.32         4.1952
   431.46         4.1559
   431.60         4.1074
   431.74         4.0483
   431.88         3.9775
   432.02         3.8942
   432.16         3.7977
   432.30         3.6881
   432.44         3.5657
   432.58         3.4310
   432.72         3.2845
   432.86         3.1280
   433.00         2.9643
   433.14         2.7977
   433.28         2.6340
   433.42         2.4801
   433.56         2.3433
   433.70         2.2306
   433.84         2.1479
   433.98         2.0994
   434.12         2.0875
   434.26         2.1127
   434.40         2.1734
   434.54         2.2662
   434.68         2.3857
   434.82         2.5251
   434.96         2.6764
   435.10         2.8320
   435.24         2.9857
   435.38         3.1332
   435.52         3.2717
   435.66         3.3997
   435.80         3.5165
   435.94         3.6220
   436.08         3.7160
   436.22         3.7989
   436.36         3.8711
   436.50         3.9334
   436.64         3.9869
   436.78         4.0326
   436.92         4.0717
   437.06         4.1048
   437.20         4.1321
   437.34         4.1538
   437.48         4.1706
   437.62         4.1839
   437.76         4.1951
   437.90         4.2055
   438.04         4.2152
   438.18         4.2243
   438.32         4.2328
   438.46         4.2411
   438.60         4.2495
   438.74         4.2580
   438.88         4.2660
   439.02         4.2730
   439.16         4.2789
   439.30         4.2841
   439.44         4.2893
   439.58         4.2951
   439.72         4.3019
   439.86         4.3092
   440.00         4.3165
   440.14         4.3228
   440.28         4.3266
   440.42         4.3261
   440.56         4.3202
   440.70         4.3087
   440.84         4.2919
   440.98         4.2712
   441.12         4.2482
   441.26         4.2250
   441.40         4.2034
   441.54         4.1860
   441.68         4.1748
   441.82         4.1710
   441.96         4.1745
   442.10         4.1838
   442.24         4.1972
   442.38         4.2122
   442.52         4.2266
   442.66         4.2386
   442.80         4.2468
   442.94         4.2503
   443.08         4.2488
   443.22         4.2429
   443.36         4.2342
   443.50         4.2246
   443.64         4.2157
   443.78         4.2085
   443.92         4.2038
   444.06         4.2020
   444.20         4.2027
   444.34         4.2049
   444.48         4.2075
   444.62         4.2097
   444.76         4.2105
   444.90         4.2093
   445.04         4.2056
   445.18         4.1988
   445.32         4.1893
   445.46         4.1776
   445.60         4.1649
   445.74         4.1523
   445.88         4.1412
   446.02         4.1325
   446.16         4.1261
   446.30         4.1215
   446.44         4.1189
   446.58         4.1183
   446.72         4.1194
   446.86         4.1208
   447.00         4.1207
   447.14         4.1178
   447.28         4.1115
   447.42         4.1021
   447.56         4.0901
   447.70         4.0762
   447.84         4.0614
   447.98         4.0472
   448.12         4.0351
   448.26         4.0261
   448.40         4.0212
   448.54         4.0207
   448.68         4.0249
   448.82         4.0333
   448.96         4.0454
   449.10         4.0599
   449.24         4.0749
   449.38         4.0880
   449.52         4.0972
   449.66         4.1022
   449.80         4.1036
   449.94         4.1029
   450.08         4.1010
   450.22         4.0984
   450.36         4.0955
   450.50         4.0930
   450.64         4.0912
   450.78         4.0901
   450.92         4.0893
   451.06         4.0886
   451.20         4.0878
   451.34         4.0867
   451.48         4.0851
   451.62         4.0830
   451.76         4.0799
   451.90         4.0754
   452.04         4.0695
   452.18         4.0628
   452.32         4.0559
   452.46         4.0495
   452.60         4.0442
   452.74         4.0404
   452.88         4.0380
   453.02         4.0369
   453.16         4.0364
   453.30         4.0353
   453.44         4.0325
   453.58         4.0270
   453.72         4.0180
   453.86         4.0054
   454.00         3.9895
   454.14         3.9710
   454.28         3.9509
   454.42         3.9306
   454.56         3.9117
   454.70         3.8960
   454.84         3.8848
   454.98         3.8787
   455.12         3.8777
   455.26         3.8814
   455.40         3.8884
   455.54         3.8971
   455.68         3.9052
   455.82         3.9113
   455.96         3.9147
   456.10         3.9156
   456.24         3.9146
   456.38         3.9120
   456.52         3.9087
   456.66         3.9053
   456.80         3.9025
   456.94         3.9006
   457.08         3.8998
   457.22         3.8996
   457.36         3.8991
   457.50         3.8969
   457.64         3.8922
   457.78         3.8844
   457.92         3.8736
   458.06         3.8600
   458.20         3.8449
   458.34         3.8298
   458.48         3.8167
   458.62         3.8067
   458.76         3.8004
   458.90         3.7973
   459.04         3.7972
   459.18         3.7998
   459.32         3.8046
   459.46         3.8103
   459.60         3.8154
   459.74         3.8186
   459.88         3.8191
   460.02         3.8164
   460.16         3.8104
   460.30         3.8013
   460.44         3.7901
   460.58         3.7778
   460.72         3.7656
   460.86         3.7544
   461.00         3.7453
   461.14         3.7383
