# File FEIGE28
# Wavelength [nm]    Normalized Amplitude
   349.70         1.9420
   349.84         1.9408
   349.98         1.9416
   350.12         1.9437
   350.26         1.9463
   350.40         1.9487
   350.54         1.9499
   350.68         1.9499
   350.82         1.9491
   350.96         1.9482
   351.10         1.9477
   351.24         1.9482
   351.38         1.9491
   351.52         1.9499
   351.66         1.9499
   351.80         1.9487
   351.94         1.9463
   352.08         1.9437
   352.22         1.9416
   352.36         1.9408
   352.50         1.9420
   352.64         1.9460
   352.78         1.9526
   352.92         1.9609
   353.06         1.9696
   353.20         1.9782
   353.34         1.9857
   353.48         1.9907
   353.62         1.9921
   353.76         1.9889
   353.90         1.9809
   354.04         1.9686
   354.18         1.9528
   354.32         1.9346
   354.46         1.9156
   354.60         1.8980
   354.74         1.8832
   354.88         1.8721
   355.02         1.8652
   355.16         1.8619
   355.30         1.8610
   355.44         1.8604
   355.58         1.8585
   355.72         1.8551
   355.86         1.8504
   356.00         1.8438
   356.14         1.8350
   356.28         1.8242
   356.42         1.8122
   356.56         1.8004
   356.70         1.7897
   356.84         1.7811
   356.98         1.7754
   357.12         1.7735
   357.26         1.7750
   357.40         1.7790
   357.54         1.7840
   357.68         1.7883
   357.82         1.7897
   357.96         1.7864
   358.10         1.7784
   358.24         1.7668
   358.38         1.7535
   358.52         1.7398
   358.66         1.7271
   358.80         1.7178
   358.94         1.7140
   359.08         1.7173
   359.22         1.7278
   359.36         1.7445
   359.50         1.7652
   359.64         1.7874
   359.78         1.8081
   359.92         1.8247
   360.06         1.8351
   360.20         1.8381
   360.34         1.8336
   360.48         1.8224
   360.62         1.8061
   360.76         1.7867
   360.90         1.7664
   361.04         1.7478
   361.18         1.7335
   361.32         1.7255
   361.46         1.7253
   361.60         1.7333
   361.74         1.7491
   361.88         1.7716
   362.02         1.7986
   362.16         1.8272
   362.30         1.8544
   362.44         1.8776
   362.58         1.8948
   362.72         1.9045
   362.86         1.9068
   363.00         1.9027
   363.14         1.8940
   363.28         1.8833
   363.42         1.8734
   363.56         1.8671
   363.70         1.8655
   363.84         1.8689
   363.98         1.8767
   364.12         1.8881
   364.26         1.9012
   364.40         1.9144
   364.54         1.9264
   364.68         1.9363
   364.82         1.9440
   364.96         1.9494
   365.10         1.9528
   365.24         1.9542
   365.38         1.9539
   365.52         1.9527
   365.66         1.9514
   365.80         1.9497
   365.94         1.9473
   366.08         1.9437
   366.22         1.9379
   366.36         1.9293
   366.50         1.9184
   366.64         1.9059
   366.78         1.8928
   366.92         1.8794
   367.06         1.8661
   367.20         1.8532
   367.34         1.8408
   367.48         1.8289
   367.62         1.8178
   367.76         1.8081
   367.90         1.8012
   368.04         1.7983
   368.18         1.8001
   368.32         1.8064
   368.46         1.8164
   368.60         1.8293
   368.74         1.8447
   368.88         1.8620
   369.02         1.8813
   369.16         1.9018
   369.30         1.9219
   369.44         1.9395
   369.58         1.9530
   369.72         1.9622
   369.86         1.9674
   370.00         1.9685
   370.14         1.9655
   370.28         1.9586
   370.42         1.9489
   370.56         1.9379
   370.70         1.9276
   370.84         1.9197
   370.98         1.9149
   371.12         1.9130
   371.26         1.9139
   371.40         1.9178
   371.54         1.9246
   371.68         1.9338
   371.82         1.9453
   371.96         1.9591
   372.10         1.9750
   372.24         1.9917
   372.38         2.0069
   372.52         2.0183
   372.66         2.0248
   372.80         2.0275
   372.94         2.0293
   373.08         2.0339
   373.22         2.0445
   373.36         2.0622
   373.50         2.0857
   373.64         2.1126
   373.78         2.1397
   373.92         2.1636
   374.06         2.1807
   374.20         2.1884
   374.34         2.1854
   374.48         2.1730
   374.62         2.1541
   374.76         2.1329
   374.90         2.1149
   375.04         2.1062
   375.18         2.1127
   375.32         2.1382
   375.46         2.1822
   375.60         2.2403
   375.74         2.3045
   375.88         2.3641
   376.02         2.4085
   376.16         2.4301
   376.30         2.4260
   376.44         2.3986
   376.58         2.3552
   376.72         2.3064
   376.86         2.2642
   377.00         2.2398
   377.14         2.2424
   377.28         2.2778
   377.42         2.3478
   377.56         2.4492
   377.70         2.5752
   377.84         2.7155
   377.98         2.8573
   378.12         2.9871
   378.26         3.0926
   378.40         3.1640
   378.54         3.1947
   378.68         3.1825
   378.82         3.1303
   378.96         3.0460
   379.10         2.9404
   379.24         2.8263
   379.38         2.7166
   379.52         2.6238
   379.66         2.5594
   379.80         2.5326
   379.94         2.5493
   380.08         2.6115
   380.22         2.7172
   380.36         2.8611
   380.50         3.0344
   380.64         3.2261
   380.78         3.4240
   380.92         3.6160
   381.06         3.7909
   381.20         3.9396
   381.34         4.0560
   381.48         4.1366
   381.62         4.1801
   381.76         4.1855
   381.90         4.1529
   382.04         4.0826
   382.18         3.9766
   382.32         3.8389
   382.46         3.6752
   382.60         3.4927
   382.74         3.3008
   382.88         3.1097
   383.02         2.9301
   383.16         2.7727
   383.30         2.6477
   383.44         2.5633
   383.58         2.5242
   383.72         2.5320
   383.86         2.5860
   384.00         2.6828
   384.14         2.8164
   384.28         2.9793
   384.42         3.1631
   384.56         3.3594
   384.70         3.5604
   384.84         3.7595
   384.98         3.9507
   385.12         4.1299
   385.26         4.2948
   385.40         4.4441
   385.54         4.5767
   385.68         4.6917
   385.82         4.7882
   385.96         4.8641
   386.10         4.9167
   386.24         4.9434
   386.38         4.9430
   386.52         4.9153
   386.66         4.8605
   386.80         4.7787
   386.94         4.6714
   387.08         4.5402
   387.22         4.3869
   387.36         4.2131
   387.50         4.0206
   387.64         3.8123
   387.78         3.5929
   387.92         3.3685
   388.06         3.1466
   388.20         2.9360
   388.34         2.7459
   388.48         2.5856
   388.62         2.4636
   388.76         2.3866
   388.90         2.3587
   389.04         2.3816
   389.18         2.4537
   389.32         2.5706
   389.46         2.7254
   389.60         2.9096
   389.74         3.1139
   389.88         3.3284
   390.02         3.5434
   390.16         3.7514
   390.30         3.9468
   390.44         4.1266
   390.58         4.2896
   390.72         4.4359
   390.86         4.5659
   391.00         4.6803
   391.14         4.7793
   391.28         4.8630
   391.42         4.9322
   391.56         4.9885
   391.70         5.0338
   391.84         5.0684
   391.98         5.0913
   392.12         5.1002
   392.26         5.0932
   392.40         5.0693
   392.54         5.0295
   392.68         4.9773
   392.82         4.9182
   392.96         4.8593
   393.10         4.8065
   393.24         4.7645
   393.38         4.7364
   393.52         4.7237
   393.66         4.7261
   393.80         4.7415
   393.94         4.7667
   394.08         4.7967
   394.22         4.8245
   394.36         4.8422
   394.50         4.8419
   394.64         4.8179
   394.78         4.7674
   394.92         4.6907
   395.06         4.5907
   395.20         4.4707
   395.34         4.3330
   395.48         4.1786
   395.62         4.0066
   395.76         3.8166
   395.90         3.6096
   396.04         3.3902
   396.18         3.1657
   396.32         2.9456
   396.46         2.7410
   396.60         2.5629
   396.74         2.4211
   396.88         2.3242
   397.02         2.2779
   397.16         2.2857
   397.30         2.3476
   397.44         2.4602
   397.58         2.6164
   397.72         2.8059
   397.86         3.0170
   398.00         3.2368
   398.14         3.4537
   398.28         3.6588
   398.42         3.8466
   398.56         4.0147
   398.70         4.1631
   398.84         4.2933
   398.98         4.4070
   399.12         4.5058
   399.26         4.5908
   399.40         4.6630
   399.54         4.7232
   399.68         4.7731
   399.82         4.8149
   399.96         4.8505
   400.10         4.8812
   400.24         4.9082
   400.38         4.9326
   400.52         4.9558
   400.66         4.9782
   400.80         5.0001
   400.94         5.0214
   401.08         5.0421
   401.22         5.0616
   401.36         5.0795
   401.50         5.0956
   401.64         5.1088
   401.78         5.1183
   401.92         5.1239
   402.06         5.1264
   402.20         5.1269
   402.34         5.1267
   402.48         5.1265
   402.62         5.1260
   402.76         5.1252
   402.90         5.1250
   403.04         5.1268
   403.18         5.1317
   403.32         5.1394
   403.46         5.1488
   403.60         5.1584
   403.74         5.1665
   403.88         5.1718
   404.02         5.1738
   404.16         5.1722
   404.30         5.1669
   404.44         5.1587
   404.58         5.1494
   404.72         5.1402
   404.86         5.1315
   405.00         5.1236
   405.14         5.1170
   405.28         5.1122
   405.42         5.1094
   405.56         5.1079
   405.70         5.1062
   405.84         5.1018
   405.98         5.0925
   406.12         5.0765
   406.26         5.0533
   406.40         5.0233
   406.54         4.9870
   406.68         4.9451
   406.82         4.8979
   406.96         4.8460
   407.10         4.7900
   407.24         4.7305
   407.38         4.6678
   407.52         4.6025
   407.66         4.5355
   407.80         4.4667
   407.94         4.3947
   408.08         4.3172
   408.22         4.2316
   408.36         4.1355
   408.50         4.0265
   408.64         3.9030
   408.78         3.7639
   408.92         3.6091
   409.06         3.4395
   409.20         3.2580
   409.34         3.0700
   409.48         2.8828
   409.62         2.7055
   409.76         2.5477
   409.90         2.4184
   410.04         2.3255
   410.18         2.2748
   410.32         2.2692
   410.46         2.3090
   410.60         2.3911
   410.74         2.5102
   410.88         2.6588
   411.02         2.8282
   411.16         3.0089
   411.30         3.1920
   411.44         3.3696
   411.58         3.5359
   411.72         3.6869
   411.86         3.8205
   412.00         3.9359
   412.14         4.0338
   412.28         4.1160
   412.42         4.1853
   412.56         4.2444
   412.70         4.2965
   412.84         4.3440
   412.98         4.3885
   413.12         4.4304
   413.26         4.4692
   413.40         4.5053
   413.54         4.5391
   413.68         4.5713
   413.82         4.6020
   413.96         4.6311
   414.10         4.6581
   414.24         4.6820
   414.38         4.7022
   414.52         4.7187
   414.66         4.7328
   414.80         4.7466
   414.94         4.7615
   415.08         4.7777
   415.22         4.7948
   415.36         4.8120
   415.50         4.8285
   415.64         4.8430
   415.78         4.8549
   415.92         4.8637
   416.06         4.8694
   416.20         4.8711
   416.34         4.8680
   416.48         4.8595
   416.62         4.8455
   416.76         4.8267
   416.90         4.8043
   417.04         4.7806
   417.18         4.7578
   417.32         4.7376
   417.46         4.7207
   417.60         4.7072
   417.74         4.6967
   417.88         4.6889
   418.02         4.6836
   418.16         4.6807
   418.30         4.6797
   418.44         4.6804
   418.58         4.6820
   418.72         4.6835
   418.86         4.6844
   419.00         4.6850
   419.14         4.6856
   419.28         4.6861
   419.42         4.6866
   419.56         4.6875
   419.70         4.6887
   419.84         4.6899
   419.98         4.6909
   420.12         4.6919
   420.26         4.6922
   420.40         4.6913
   420.54         4.6886
   420.68         4.6839
   420.82         4.6776
   420.96         4.6699
   421.10         4.6610
   421.24         4.6512
   421.38         4.6405
   421.52         4.6294
   421.66         4.6185
   421.80         4.6081
   421.94         4.5984
   422.08         4.5890
   422.22         4.5794
   422.36         4.5694
   422.50         4.5588
   422.64         4.5480
   422.78         4.5373
   422.92         4.5271
   423.06         4.5177
   423.20         4.5102
   423.34         4.5053
   423.48         4.5033
   423.62         4.5036
   423.76         4.5053
   423.90         4.5074
   424.04         4.5092
   424.18         4.5104
   424.32         4.5112
   424.46         4.5112
   424.60         4.5099
   424.74         4.5064
   424.88         4.5006
   425.02         4.4922
   425.16         4.4817
   425.30         4.4692
   425.44         4.4553
   425.58         4.4406
   425.72         4.4252
   425.86         4.4094
   426.00         4.3936
   426.14         4.3782
   426.28         4.3640
   426.42         4.3516
   426.56         4.3417
   426.70         4.3351
   426.84         4.3327
   426.98         4.3350
   427.12         4.3427
   427.26         4.3556
   427.40         4.3737
   427.54         4.3962
   427.68         4.4220
   427.82         4.4492
   427.96         4.4751
   428.10         4.4969
   428.24         4.5119
   428.38         4.5184
   428.52         4.5156
   428.66         4.5040
   428.80         4.4848
   428.94         4.4595
   429.08         4.4299
   429.22         4.3973
   429.36         4.3634
   429.50         4.3303
   429.64         4.2997
   429.78         4.2730
   429.92         4.2508
   430.06         4.2329
   430.20         4.2180
   430.34         4.2044
   430.48         4.1903
   430.62         4.1747
   430.76         4.1569
   430.90         4.1360
   431.04         4.1111
   431.18         4.0806
   431.32         4.0434
   431.46         3.9982
   431.60         3.9441
   431.74         3.8807
   431.88         3.8083
   432.02         3.7277
   432.16         3.6399
   432.30         3.5453
   432.44         3.4435
   432.58         3.3333
   432.72         3.2131
   432.86         3.0818
   433.00         2.9398
   433.14         2.7895
   433.28         2.6351
   433.42         2.4822
   433.56         2.3376
   433.70         2.2089
   433.84         2.1036
   433.98         2.0281
   434.12         1.9870
   434.26         1.9826
   434.40         2.0153
   434.54         2.0828
   434.68         2.1806
   434.82         2.3021
   434.96         2.4391
   435.10         2.5833
   435.24         2.7272
   435.38         2.8654
   435.52         2.9948
   435.66         3.1137
   435.80         3.2218
   435.94         3.3195
   436.08         3.4073
   436.22         3.4860
   436.36         3.5565
   436.50         3.6199
   436.64         3.6772
   436.78         3.7297
   436.92         3.7790
   437.06         3.8262
   437.20         3.8711
   437.34         3.9126
   437.48         3.9498
   437.62         3.9824
   437.76         4.0106
   437.90         4.0347
   438.04         4.0543
   438.18         4.0687
   438.32         4.0775
   438.46         4.0811
   438.60         4.0811
   438.74         4.0791
   438.88         4.0769
   439.02         4.0760
   439.16         4.0774
   439.30         4.0814
   439.44         4.0879
   439.58         4.0959
   439.72         4.1043
   439.86         4.1119
   440.00         4.1186
   440.14         4.1249
   440.28         4.1305
   440.42         4.1344
   440.56         4.1355
   440.70         4.1327
   440.84         4.1261
   440.98         4.1164
   441.12         4.1048
   441.26         4.0921
   441.40         4.0792
   441.54         4.0675
   441.68         4.0587
   441.82         4.0541
   441.96         4.0538
   442.10         4.0574
   442.24         4.0641
   442.38         4.0732
   442.52         4.0836
   442.66         4.0939
   442.80         4.1027
   442.94         4.1086
   443.08         4.1107
   443.22         4.1087
   443.36         4.1029
   443.50         4.0943
   443.64         4.0842
   443.78         4.0743
   443.92         4.0664
   444.06         4.0626
   444.20         4.0641
   444.34         4.0710
   444.48         4.0820
   444.62         4.0959
   444.76         4.1114
   444.90         4.1276
   445.04         4.1431
   445.18         4.1568
   445.32         4.1679
   445.46         4.1755
   445.60         4.1794
   445.74         4.1791
   445.88         4.1753
   446.02         4.1688
   446.16         4.1608
   446.30         4.1523
   446.44         4.1441
   446.58         4.1368
   446.72         4.1297
   446.86         4.1213
   447.00         4.1097
   447.14         4.0937
   447.28         4.0738
   447.42         4.0511
   447.56         4.0270
   447.70         4.0031
   447.84         3.9808
   447.98         3.9616
   448.12         3.9463
   448.26         3.9356
   448.40         3.9298
   448.54         3.9294
   448.68         3.9340
   448.82         3.9429
   448.96         3.9546
   449.10         3.9674
   449.24         3.9797
   449.38         3.9900
   449.52         3.9975
   449.66         4.0019
   449.80         4.0031
   449.94         4.0017
   450.08         3.9978
   450.22         3.9921
   450.36         3.9850
   450.50         3.9771
   450.64         3.9688
   450.78         3.9600
   450.92         3.9511
   451.06         3.9420
   451.20         3.9324
   451.34         3.9222
   451.48         3.9112
   451.62         3.8995
   451.76         3.8877
   451.90         3.8765
   452.04         3.8665
   452.18         3.8582
   452.32         3.8518
   452.46         3.8475
   452.60         3.8454
   452.74         3.8456
   452.88         3.8476
   453.02         3.8509
   453.16         3.8550
   453.30         3.8600
   453.44         3.8661
   453.58         3.8726
   453.72         3.8786
   453.86         3.8828
   454.00         3.8838
   454.14         3.8808
   454.28         3.8727
   454.42         3.8592
   454.56         3.8407
   454.70         3.8179
   454.84         3.7920
   454.98         3.7645
   455.12         3.7371
   455.26         3.7119
   455.40         3.6912
   455.54         3.6771
   455.68         3.6707
   455.82         3.6715
   455.96         3.6779
   456.10         3.6876
   456.24         3.6983
   456.38         3.7082
   456.52         3.7159
   456.66         3.7206
   456.80         3.7221
   456.94         3.7205
   457.08         3.7168
   457.22         3.7118
   457.36         3.7070
   457.50         3.7033
   457.64         3.7015
   457.78         3.7021
   457.92         3.7046
   458.06         3.7084
   458.20         3.7127
   458.34         3.7168
   458.48         3.7199
   458.62         3.7217
   458.76         3.7223
   458.90         3.7218
   459.04         3.7204
   459.18         3.7180
   459.32         3.7148
   459.46         3.7112
   459.60         3.7077
   459.74         3.7048
   459.88         3.7032
   460.02         3.7030
   460.16         3.7036
   460.30         3.7044
   460.44         3.7050
   460.58         3.7047
   460.72         3.7036
   460.86         3.7020
   461.00         3.7005
   461.14         3.6993
