# File HD10032
# Wavelength [nm]    Normalized Amplitude
   349.70         12.1575
   349.84         12.1567
   349.98         12.1730
   350.12         12.2012
   350.26         12.2336
   350.40         12.2642
   350.54         12.2918
   350.68         12.3178
   350.82         12.3413
   350.96         12.3585
   351.10         12.3649
   351.24         12.3585
   351.38         12.3413
   351.52         12.3178
   351.66         12.2918
   351.80         12.2642
   351.94         12.2336
   352.08         12.2012
   352.22         12.1730
   352.36         12.1567
   352.50         12.1575
   352.64         12.1783
   352.78         12.2211
   352.92         12.2869
   353.06         12.3738
   353.20         12.4771
   353.34         12.5878
   353.48         12.6972
   353.62         12.7998
   353.76         12.8936
   353.90         12.9780
   354.04         13.0520
   354.18         13.1126
   354.32         13.1562
   354.46         13.1824
   354.60         13.1930
   354.74         13.1905
   354.88         13.1777
   355.02         13.1567
   355.16         13.1278
   355.30         13.0897
   355.44         13.0408
   355.58         12.9775
   355.72         12.8961
   355.86         12.7943
   356.00         12.6727
   356.14         12.5348
   356.28         12.3856
   356.42         12.2314
   356.56         12.0805
   356.70         11.9424
   356.84         11.8258
   356.98         11.7380
   357.12         11.6818
   357.26         11.6531
   357.40         11.6447
   357.54         11.6505
   357.68         11.6636
   357.82         11.6741
   357.96         11.6733
   358.10         11.6584
   358.24         11.6319
   358.38         11.5999
   358.52         11.5700
   358.66         11.5501
   358.80         11.5489
   358.94         11.5745
   359.08         11.6304
   359.22         11.7142
   359.36         11.8190
   359.50         11.9366
   359.64         12.0586
   359.78         12.1769
   359.92         12.2846
   360.06         12.3774
   360.20         12.4521
   360.34         12.5055
   360.48         12.5357
   360.62         12.5434
   360.76         12.5305
   360.90         12.4994
   361.04         12.4538
   361.18         12.4003
   361.32         12.3482
   361.46         12.3074
   361.60         12.2848
   361.74         12.2829
   361.88         12.3003
   362.02         12.3336
   362.16         12.3774
   362.30         12.4249
   362.44         12.4699
   362.58         12.5079
   362.72         12.5366
   362.86         12.5558
   363.00         12.5668
   363.14         12.5705
   363.28         12.5672
   363.42         12.5567
   363.56         12.5393
   363.70         12.5157
   363.84         12.4869
   363.98         12.4552
   364.12         12.4235
   364.26         12.3958
   364.40         12.3764
   364.54         12.3697
   364.68         12.3802
   364.82         12.4129
   364.96         12.4731
   365.10         12.5641
   365.24         12.6835
   365.38         12.8241
   365.52         12.9756
   365.66         13.1249
   365.80         13.2595
   365.94         13.3695
   366.08         13.4485
   366.22         13.4948
   366.36         13.5119
   366.50         13.5057
   366.64         13.4818
   366.78         13.4436
   366.92         13.3933
   367.06         13.3326
   367.20         13.2636
   367.34         13.1882
   367.48         13.1084
   367.62         13.0264
   367.76         12.9447
   367.90         12.8670
   368.04         12.7973
   368.18         12.7399
   368.32         12.6990
   368.46         12.6799
   368.60         12.6868
   368.74         12.7226
   368.88         12.7891
   369.02         12.8847
   369.16         13.0007
   369.30         13.1234
   369.44         13.2381
   369.58         13.3319
   369.72         13.3950
   369.86         13.4208
   370.00         13.4062
   370.14         13.3569
   370.28         13.2904
   370.42         13.2297
   370.56         13.1960
   370.70         13.2023
   370.84         13.2513
   370.98         13.3371
   371.12         13.4489
   371.26         13.5756
   371.40         13.7084
   371.54         13.8406
   371.68         13.9662
   371.82         14.0797
   371.96         14.1761
   372.10         14.2494
   372.24         14.2899
   372.38         14.2875
   372.52         14.2389
   372.66         14.1528
   372.80         14.0488
   372.94         13.9497
   373.08         13.8739
   373.22         13.8325
   373.36         13.8275
   373.50         13.8542
   373.64         13.9046
   373.78         13.9686
   373.92         14.0360
   374.06         14.0993
   374.20         14.1560
   374.34         14.2071
   374.48         14.2548
   374.62         14.3004
   374.76         14.3470
   374.90         14.4046
   375.04         14.4927
   375.18         14.6332
   375.32         14.8376
   375.46         15.1010
   375.60         15.4015
   375.74         15.7030
   375.88         15.9615
   376.02         16.1381
   376.16         16.2111
   376.30         16.1808
   376.44         16.0702
   376.58         15.9238
   376.72         15.7967
   376.86         15.7386
   377.00         15.7839
   377.14         15.9517
   377.28         16.2483
   377.42         16.6664
   377.56         17.1847
   377.70         17.7682
   377.84         18.3716
   377.98         18.9451
   378.12         19.4394
   378.26         19.8081
   378.40         20.0122
   378.54         20.0267
   378.68         19.8470
   378.82         19.4921
   378.96         19.0026
   379.10         18.4358
   379.24         17.8578
   379.38         17.3324
   379.52         16.9155
   379.66         16.6537
   379.80         16.5828
   379.94         16.7175
   380.08         17.0470
   380.22         17.5402
   380.36         18.1559
   380.50         18.8470
   380.64         19.5636
   380.78         20.2566
   380.92         20.8814
   381.06         21.4038
   381.20         21.8039
   381.34         22.0764
   381.48         22.2273
   381.62         22.2668
   381.76         22.2035
   381.90         22.0403
   382.04         21.7735
   382.18         21.3941
   382.32         20.8951
   382.46         20.2769
   382.60         19.5520
   382.74         18.7502
   382.88         17.9212
   383.02         17.1295
   383.16         16.4420
   383.30         15.9181
   383.44         15.6022
   383.58         15.5214
   383.72         15.6850
   383.86         16.0830
   384.00         16.6882
   384.14         17.4597
   384.28         18.3459
   384.42         19.2857
   384.56         20.2159
   384.70         21.0806
   384.84         21.8394
   384.98         22.4732
   385.12         22.9828
   385.26         23.3819
   385.40         23.6914
   385.54         23.9337
   385.68         24.1298
   385.82         24.2968
   385.96         24.4452
   386.10         24.5779
   386.24         24.6915
   386.38         24.7781
   386.52         24.8253
   386.66         24.8182
   386.80         24.7438
   386.94         24.5927
   387.08         24.3596
   387.22         24.0417
   387.36         23.6355
   387.50         23.1365
   387.64         22.5418
   387.78         21.8551
   387.92         21.0901
   388.06         20.2729
   388.20         19.4415
   388.34         18.6413
   388.48         17.9200
   388.62         17.3214
   388.76         16.8837
   388.90         16.6368
   389.04         16.5975
   389.18         16.7658
   389.32         17.1261
   389.46         17.6500
   389.60         18.2977
   389.74         19.0223
   389.88         19.7757
   390.02         20.5155
   390.16         21.2090
   390.30         21.8361
   390.44         22.3894
   390.58         22.8686
   390.72         23.2758
   390.86         23.6139
   391.00         23.8877
   391.14         24.1022
   391.28         24.2612
   391.42         24.3661
   391.56         24.4121
   391.70         24.3851
   391.84         24.2612
   391.98         24.0092
   392.12         23.5968
   392.26         23.0038
   392.40         22.2346
   392.54         21.3225
   392.68         20.3254
   392.82         19.3194
   392.96         18.3880
   393.10         17.6095
   393.24         17.0485
   393.38         16.7515
   393.52         16.7426
   393.66         17.0180
   393.80         17.5445
   393.94         18.2635
   394.08         19.0991
   394.22         19.9660
   394.36         20.7810
   394.50         21.4756
   394.64         22.0042
   394.78         22.3485
   394.92         22.5160
   395.06         22.5296
   395.20         22.4109
   395.34         22.1695
   395.48         21.7999
   395.62         21.2871
   395.76         20.6202
   395.90         19.8058
   396.04         18.8749
   396.18         17.8799
   396.32         16.8879
   396.46         15.9737
   396.60         15.2127
   396.74         14.6708
   396.88         14.3955
   397.02         14.4122
   397.16         14.7229
   397.30         15.3059
   397.44         16.1179
   397.58         17.0977
   397.72         18.1751
   397.86         19.2786
   398.00         20.3446
   398.14         21.3234
   398.28         22.1845
   398.42         22.9175
   398.56         23.5280
   398.70         24.0318
   398.84         24.4488
   398.98         24.7975
   399.12         25.0917
   399.26         25.3383
   399.40         25.5388
   399.54         25.6958
   399.68         25.8168
   399.82         25.9132
   399.96         25.9951
   400.10         26.0692
   400.24         26.1407
   400.38         26.2138
   400.52         26.2920
   400.66         26.3760
   400.80         26.4633
   400.94         26.5502
   401.08         26.6344
   401.22         26.7154
   401.36         26.7944
   401.50         26.8715
   401.64         26.9430
   401.78         27.0007
   401.92         27.0362
   402.06         27.0459
   402.20         27.0315
   402.34         26.9975
   402.48         26.9491
   402.62         26.8926
   402.76         26.8364
   402.90         26.7900
   403.04         26.7605
   403.18         26.7511
   403.32         26.7595
   403.46         26.7799
   403.60         26.8074
   403.74         26.8396
   403.88         26.8747
   404.02         26.9081
   404.16         26.9312
   404.30         26.9335
   404.44         26.9072
   404.58         26.8511
   404.72         26.7711
   404.86         26.6767
   405.00         26.5774
   405.14         26.4784
   405.28         26.3811
   405.42         26.2847
   405.56         26.1893
   405.70         26.0977
   405.84         26.0138
   405.98         25.9407
   406.12         25.8808
   406.26         25.8344
   406.40         25.7950
   406.54         25.7491
   406.68         25.6828
   406.82         25.5898
   406.96         25.4725
   407.10         25.3360
   407.24         25.1838
   407.38         25.0194
   407.52         24.8477
   407.66         24.6748
   407.80         24.5069
   407.94         24.3482
   408.08         24.1980
   408.22         24.0497
   408.36         23.8889
   408.50         23.6932
   408.64         23.4356
   408.78         23.0888
   408.92         22.6290
   409.06         22.0443
   409.20         21.3445
   409.34         20.5636
   409.48         19.7523
   409.62         18.9674
   409.76         18.2667
   409.90         17.7068
   410.04         17.3368
   410.18         17.1901
   410.32         17.2787
   410.46         17.5912
   410.60         18.0969
   410.74         18.7511
   410.88         19.4996
   411.02         20.2828
   411.16         21.0443
   411.30         21.7388
   411.44         22.3359
   411.58         22.8228
   411.72         23.2054
   411.86         23.5007
   412.00         23.7278
   412.14         23.9027
   412.28         24.0397
   412.42         24.1547
   412.56         24.2641
   412.70         24.3832
   412.84         24.5231
   412.98         24.6879
   413.12         24.8741
   413.26         25.0743
   413.40         25.2805
   413.54         25.4851
   413.68         25.6813
   413.82         25.8642
   413.96         26.0281
   414.10         26.1651
   414.24         26.2663
   414.38         26.3251
   414.52         26.3388
   414.66         26.3097
   414.80         26.2463
   414.94         26.1628
   415.08         26.0777
   415.22         26.0086
   415.36         25.9673
   415.50         25.9577
   415.64         25.9796
   415.78         26.0319
   415.92         26.1093
   416.06         26.1991
   416.20         26.2819
   416.34         26.3366
   416.48         26.3469
   416.62         26.3026
   416.76         26.2017
   416.90         26.0522
   417.04         25.8704
   417.18         25.6762
   417.32         25.4898
   417.46         25.3297
   417.60         25.2107
   417.74         25.1411
   417.88         25.1237
   418.02         25.1548
   418.16         25.2276
   418.30         25.3335
   418.44         25.4584
   418.58         25.5829
   418.72         25.6897
   418.86         25.7698
   419.00         25.8212
   419.14         25.8457
   419.28         25.8471
   419.42         25.8314
   419.56         25.8055
   419.70         25.7757
   419.84         25.7487
   419.98         25.7323
   420.12         25.7335
   420.26         25.7570
   420.40         25.8038
   420.54         25.8708
   420.68         25.9505
   420.82         26.0328
   420.96         26.1062
   421.10         26.1594
   421.24         26.1827
   421.38         26.1678
   421.52         26.1089
   421.66         26.0063
   421.80         25.8691
   421.94         25.7119
   422.08         25.5476
   422.22         25.3849
   422.36         25.2311
   422.50         25.0935
   422.64         24.9793
   422.78         24.8945
   422.92         24.8434
   423.06         24.8284
   423.20         24.8498
   423.34         24.9039
   423.48         24.9807
   423.62         25.0653
   423.76         25.1415
   423.90         25.1956
   424.04         25.2222
   424.18         25.2256
   424.32         25.2177
   424.46         25.2098
   424.60         25.2066
   424.74         25.2063
   424.88         25.2076
   425.02         25.2150
   425.16         25.2362
   425.30         25.2778
   425.44         25.3427
   425.58         25.4286
   425.72         25.5273
   425.86         25.6244
   426.00         25.7035
   426.14         25.7513
   426.28         25.7617
   426.42         25.7359
   426.56         25.6813
   426.70         25.6085
   426.84         25.5285
   426.98         25.4510
   427.12         25.3817
   427.26         25.3238
   427.40         25.2794
   427.54         25.2500
   427.68         25.2340
   427.82         25.2237
   427.96         25.2077
   428.10         25.1753
   428.24         25.1186
   428.38         25.0338
   428.52         24.9211
   428.66         24.7837
   428.80         24.6263
   428.94         24.4532
   429.08         24.2695
   429.22         24.0820
   429.36         23.8970
   429.50         23.7200
   429.64         23.5546
   429.78         23.4042
   429.92         23.2738
   430.06         23.1677
   430.20         23.0868
   430.34         23.0300
   430.48         22.9985
   430.62         22.9949
   430.76         23.0188
   430.90         23.0643
   431.04         23.1214
   431.18         23.1780
   431.32         23.2206
   431.46         23.2376
   431.60         23.2228
   431.74         23.1756
   431.88         23.0967
   432.02         22.9849
   432.16         22.8377
   432.30         22.6512
   432.44         22.4180
   432.58         22.1248
   432.72         21.7531
   432.86         21.2854
   433.00         20.7161
   433.14         20.0567
   433.28         19.3341
   433.42         18.5877
   433.56         17.8672
   433.70         17.2267
   433.84         16.7165
   433.98         16.3754
   434.12         16.2296
   434.26         16.2923
   434.40         16.5612
   434.54         17.0174
   434.68         17.6269
   434.82         18.3443
   434.96         19.1194
   435.10         19.9040
   435.24         20.6585
   435.38         21.3558
   435.52         21.9823
   435.66         22.5369
   435.80         23.0244
   435.94         23.4500
   436.08         23.8159
   436.22         24.1205
   436.36         24.3606
   436.50         24.5345
   436.64         24.6463
   436.78         24.7066
   436.92         24.7290
   437.06         24.7243
   437.20         24.6964
   437.34         24.6451
   437.48         24.5724
   437.62         24.4846
   437.76         24.3907
   437.90         24.2993
   438.04         24.2171
   438.18         24.1483
   438.32         24.0962
   438.46         24.0654
   438.60         24.0609
   438.74         24.0842
   438.88         24.1332
   439.02         24.2038
   439.16         24.2907
   439.30         24.3873
   439.44         24.4836
   439.58         24.5688
   439.72         24.6332
   439.86         24.6720
   440.00         24.6891
   440.14         24.6921
   440.28         24.6869
   440.42         24.6744
   440.56         24.6527
   440.70         24.6212
   440.84         24.5829
   440.98         24.5438
   441.12         24.5106
   441.26         24.4871
   441.40         24.4752
   441.54         24.4769
   441.68         24.4956
   441.82         24.5348
   441.96         24.5940
   442.10         24.6677
   442.24         24.7474
   442.38         24.8247
   442.52         24.8944
   442.66         24.9536
   442.80         24.9993
   442.94         25.0282
   443.08         25.0357
   443.22         25.0207
   443.36         24.9863
   443.50         24.9383
   443.64         24.8819
   443.78         24.8218
   443.92         24.7639
   444.06         24.7134
   444.20         24.6731
   444.34         24.6422
   444.48         24.6158
   444.62         24.5882
   444.76         24.5558
   444.90         24.5190
   445.04         24.4798
   445.18         24.4400
   445.32         24.3984
   445.46         24.3510
   445.60         24.2932
   445.74         24.2248
   445.88         24.1536
   446.02         24.0924
   446.16         24.0520
   446.30         24.0379
   446.44         24.0530
   446.58         24.0971
   446.72         24.1640
   446.86         24.2410
   447.00         24.3139
   447.14         24.3737
   447.28         24.4183
   447.42         24.4489
   447.56         24.4658
   447.70         24.4664
   447.84         24.4487
   447.98         24.4136
   448.12         24.3677
   448.26         24.3218
   448.40         24.2880
   448.54         24.2760
   448.68         24.2900
   448.82         24.3282
   448.96         24.3854
   449.10         24.4567
   449.24         24.5369
   449.38         24.6206
   449.52         24.7030
   449.66         24.7833
   449.80         24.8639
   449.94         24.9457
   450.08         25.0258
   450.22         25.0987
   450.36         25.1598
   450.50         25.2069
   450.64         25.2380
   450.78         25.2504
   450.92         25.2398
   451.06         25.2021
   451.20         25.1355
   451.34         25.0412
   451.48         24.9220
   451.62         24.7825
   451.76         24.6285
   451.90         24.4651
   452.04         24.2953
   452.18         24.1229
   452.32         23.9550
   452.46         23.8017
   452.60         23.6739
   452.74         23.5796
   452.88         23.5233
   453.02         23.5059
   453.16         23.5252
   453.30         23.5771
   453.44         23.6544
   453.58         23.7461
   453.72         23.8377
   453.86         23.9153
   454.00         23.9681
   454.14         23.9873
   454.28         23.9675
   454.42         23.9094
   454.56         23.8187
   454.70         23.7056
   454.84         23.5846
   454.98         23.4711
   455.12         23.3784
   455.26         23.3145
   455.40         23.2820
   455.54         23.2799
   455.68         23.3063
   455.82         23.3574
   455.96         23.4261
   456.10         23.5035
   456.24         23.5832
   456.38         23.6628
   456.52         23.7416
   456.66         23.8170
   456.80         23.8839
   456.94         23.9371
