# File HD107399
# Wavelength [nm]    Normalized Amplitude
   349.70         5.5370
   349.84         5.5455
   349.98         5.5692
   350.12         5.6044
   350.26         5.6468
   350.40         5.6917
   350.54         5.7348
   350.68         5.7717
   350.82         5.7996
   350.96         5.8169
   351.10         5.8229
   351.24         5.8169
   351.38         5.7996
   351.52         5.7717
   351.66         5.7348
   351.80         5.6917
   351.94         5.6468
   352.08         5.6044
   352.22         5.5692
   352.36         5.5455
   352.50         5.5370
   352.64         5.5465
   352.78         5.5766
   352.92         5.6292
   353.06         5.7049
   353.20         5.8018
   353.34         5.9150
   353.48         6.0365
   353.62         6.1567
   353.76         6.2669
   353.90         6.3608
   354.04         6.4354
   354.18         6.4906
   354.32         6.5272
   354.46         6.5463
   354.60         6.5490
   354.74         6.5373
   354.88         6.5149
   355.02         6.4866
   355.16         6.4575
   355.30         6.4322
   355.44         6.4128
   355.58         6.3972
   355.72         6.3792
   355.86         6.3499
   356.00         6.3009
   356.14         6.2271
   356.28         6.1285
   356.42         6.0094
   356.56         5.8760
   356.70         5.7344
   356.84         5.5897
   356.98         5.4456
   357.12         5.3066
   357.26         5.1776
   357.40         5.0629
   357.54         4.9638
   357.68         4.8780
   357.82         4.8025
   357.96         4.7362
   358.10         4.6810
   358.24         4.6413
   358.38         4.6223
   358.52         4.6291
   358.66         4.6643
   358.80         4.7287
   358.94         4.8209
   359.08         4.9361
   359.22         5.0655
   359.36         5.1977
   359.50         5.3207
   359.64         5.4249
   359.78         5.5032
   359.92         5.5508
   360.06         5.5662
   360.20         5.5522
   360.34         5.5168
   360.48         5.4720
   360.62         5.4297
   360.76         5.3980
   360.90         5.3794
   361.04         5.3725
   361.18         5.3746
   361.32         5.3840
   361.46         5.4006
   361.60         5.4255
   361.74         5.4589
   361.88         5.5000
   362.02         5.5463
   362.16         5.5940
   362.30         5.6391
   362.44         5.6791
   362.58         5.7132
   362.72         5.7414
   362.86         5.7645
   363.00         5.7835
   363.14         5.7983
   363.28         5.8090
   363.42         5.8162
   363.56         5.8209
   363.70         5.8255
   363.84         5.8331
   363.98         5.8462
   364.12         5.8672
   364.26         5.8969
   364.40         5.9346
   364.54         5.9774
   364.68         6.0225
   364.82         6.0699
   364.96         6.1232
   365.10         6.1867
   365.24         6.2621
   365.38         6.3482
   365.52         6.4417
   365.66         6.5375
   365.80         6.6296
   365.94         6.7115
   366.08         6.7769
   366.22         6.8215
   366.36         6.8442
   366.50         6.8474
   366.64         6.8347
   366.78         6.8097
   366.92         6.7768
   367.06         6.7402
   367.20         6.7039
   367.34         6.6712
   367.48         6.6440
   367.62         6.6213
   367.76         6.6005
   367.90         6.5804
   368.04         6.5628
   368.18         6.5524
   368.32         6.5530
   368.46         6.5665
   368.60         6.5928
   368.74         6.6316
   368.88         6.6834
   369.02         6.7476
   369.16         6.8207
   369.30         6.8945
   369.44         6.9591
   369.58         7.0053
   369.72         7.0259
   369.86         7.0161
   370.00         6.9757
   370.14         6.9094
   370.28         6.8266
   370.42         6.7402
   370.56         6.6634
   370.70         6.6057
   370.84         6.5695
   370.98         6.5497
   371.12         6.5378
   371.26         6.5280
   371.40         6.5177
   371.54         6.5053
   371.68         6.4880
   371.82         6.4629
   371.96         6.4283
   372.10         6.3851
   372.24         6.3338
   372.38         6.2745
   372.52         6.2082
   372.66         6.1373
   372.80         6.0655
   372.94         5.9970
   373.08         5.9359
   373.22         5.8844
   373.36         5.8417
   373.50         5.8035
   373.64         5.7649
   373.78         5.7244
   373.92         5.6831
   374.06         5.6424
   374.20         5.6015
   374.34         5.5609
   374.48         5.5250
   374.62         5.4988
   374.76         5.4851
   374.90         5.4875
   375.04         5.5120
   375.18         5.5646
   375.32         5.6481
   375.46         5.7611
   375.60         5.8965
   375.74         6.0420
   375.88         6.1825
   376.02         6.3043
   376.16         6.3992
   376.30         6.4675
   376.44         6.5161
   376.58         6.5558
   376.72         6.5994
   376.86         6.6598
   377.00         6.7483
   377.14         6.8707
   377.28         7.0241
   377.42         7.1985
   377.56         7.3801
   377.70         7.5527
   377.84         7.6999
   377.98         7.8079
   378.12         7.8668
   378.26         7.8708
   378.40         7.8184
   378.54         7.7136
   378.68         7.5670
   378.82         7.3953
   378.96         7.2198
   379.10         7.0622
   379.24         6.9417
   379.38         6.8723
   379.52         6.8606
   379.66         6.9065
   379.80         7.0039
   379.94         7.1408
   380.08         7.3014
   380.22         7.4679
   380.36         7.6235
   380.50         7.7528
   380.64         7.8433
   380.78         7.8860
   380.92         7.8761
   381.06         7.8152
   381.20         7.7104
   381.34         7.5722
   381.48         7.4122
   381.62         7.2404
   381.76         7.0638
   381.90         6.8865
   382.04         6.7109
   382.18         6.5383
   382.32         6.3690
   382.46         6.2019
   382.60         6.0351
   382.74         5.8687
   382.88         5.7077
   383.02         5.5627
   383.16         5.4482
   383.30         5.3792
   383.44         5.3680
   383.58         5.4224
   383.72         5.5441
   383.86         5.7277
   384.00         5.9630
   384.14         6.2377
   384.28         6.5359
   384.42         6.8382
   384.56         7.1233
   384.70         7.3705
   384.84         7.5638
   384.98         7.6961
   385.12         7.7706
   385.26         7.7987
   385.40         7.7963
   385.54         7.7798
   385.68         7.7619
   385.82         7.7499
   385.96         7.7461
   386.10         7.7501
   386.24         7.7603
   386.38         7.7738
   386.52         7.7858
   386.66         7.7900
   386.80         7.7798
   386.94         7.7491
   387.08         7.6939
   387.22         7.6140
   387.36         7.5125
   387.50         7.3937
   387.64         7.2627
   387.78         7.1252
   387.92         6.9868
   388.06         6.8530
   388.20         6.7296
   388.34         6.6233
   388.48         6.5413
   388.62         6.4902
   388.76         6.4755
   388.90         6.4991
   389.04         6.5581
   389.18         6.6450
   389.32         6.7505
   389.46         6.8658
   389.60         6.9826
   389.74         7.0949
   389.88         7.1994
   390.02         7.2952
   390.16         7.3833
   390.30         7.4669
   390.44         7.5493
   390.58         7.6312
   390.72         7.7090
   390.86         7.7756
   391.00         7.8224
   391.14         7.8404
   391.28         7.8210
   391.42         7.7571
   391.56         7.6423
   391.70         7.4722
   391.84         7.2444
   391.98         6.9610
   392.12         6.6283
   392.26         6.2568
   392.40         5.8604
   392.54         5.4568
   392.68         5.0662
   392.82         4.7111
   392.96         4.4126
   393.10         4.1887
   393.24         4.0530
   393.38         4.0136
   393.52         4.0730
   393.66         4.2270
   393.80         4.4647
   393.94         4.7685
   394.08         5.1165
   394.22         5.4854
   394.36         5.8530
   394.50         6.1987
   394.64         6.5055
   394.78         6.7610
   394.92         6.9568
   395.06         7.0879
   395.20         7.1511
   395.34         7.1431
   395.48         7.0606
   395.62         6.9021
   395.76         6.6712
   395.90         6.3796
   396.04         6.0466
   396.18         5.6969
   396.32         5.3587
   396.46         5.0608
   396.60         4.8310
   396.74         4.6928
   396.88         4.6636
   397.02         4.7508
   397.16         4.9506
   397.30         5.2498
   397.44         5.6273
   397.58         6.0563
   397.72         6.5065
   397.86         6.9491
   398.00         7.3603
   398.14         7.7238
   398.28         8.0315
   398.42         8.2825
   398.56         8.4810
   398.70         8.6337
   398.84         8.7495
   398.98         8.8382
   399.12         8.9078
   399.26         8.9637
   399.40         9.0092
   399.54         9.0458
   399.68         9.0750
   399.82         9.0985
   399.96         9.1189
   400.10         9.1397
   400.24         9.1637
   400.38         9.1934
   400.52         9.2305
   400.66         9.2751
   400.80         9.3255
   400.94         9.3792
   401.08         9.4340
   401.22         9.4876
   401.36         9.5378
   401.50         9.5823
   401.64         9.6183
   401.78         9.6423
   401.92         9.6504
   402.06         9.6406
   402.20         9.6123
   402.34         9.5674
   402.48         9.5102
   402.62         9.4470
   402.76         9.3853
   402.90         9.3324
   403.04         9.2933
   403.18         9.2699
   403.32         9.2598
   403.46         9.2590
   403.60         9.2631
   403.74         9.2686
   403.88         9.2728
   404.02         9.2741
   404.16         9.2706
   404.30         9.2609
   404.44         9.2434
   404.58         9.2170
   404.72         9.1832
   404.86         9.1463
   405.00         9.1112
   405.14         9.0806
   405.28         9.0546
   405.42         9.0326
   405.56         9.0125
   405.70         8.9914
   405.84         8.9676
   405.98         8.9419
   406.12         8.9186
   406.26         8.9034
   406.40         8.8991
   406.54         8.9044
   406.68         8.9148
   406.82         8.9269
   406.96         8.9396
   407.10         8.9538
   407.24         8.9713
   407.38         8.9950
   407.52         9.0283
   407.66         9.0749
   407.80         9.1369
   407.94         9.2157
   408.08         9.3092
   408.22         9.4107
   408.36         9.5102
   408.50         9.5962
   408.64         9.6576
   408.78         9.6828
   408.92         9.6608
   409.06         9.5843
   409.20         9.4549
   409.34         9.2837
   409.48         9.0878
   409.62         8.8857
   409.76         8.6951
   409.90         8.5327
   410.04         8.4140
   410.18         8.3509
   410.32         8.3499
   410.46         8.4113
   410.60         8.5279
   410.74         8.6878
   410.88         8.8767
   411.02         9.0796
   411.16         9.2819
   411.30         9.4695
   411.44         9.6307
   411.58         9.7587
   411.72         9.8523
   411.86         9.9142
   412.00         9.9468
   412.14         9.9515
   412.28         9.9317
   412.42         9.8941
   412.56         9.8485
   412.70         9.8054
   412.84         9.7735
   412.98         9.7576
   413.12         9.7573
   413.26         9.7691
   413.40         9.7902
   413.54         9.8187
   413.68         9.8516
   413.82         9.8848
   413.96         9.9137
   414.10         9.9346
   414.24         9.9446
   414.38         9.9419
   414.52         9.9262
   414.66         9.8985
   414.80         9.8624
   414.94         9.8239
   415.08         9.7894
   415.22         9.7647
   415.36         9.7527
   415.50         9.7530
   415.64         9.7634
   415.78         9.7814
   415.92         9.8051
   416.06         9.8320
   416.20         9.8568
   416.34         9.8727
   416.48         9.8743
   416.62         9.8589
   416.76         9.8264
   416.90         9.7794
   417.04         9.7221
   417.18         9.6599
   417.32         9.5986
   417.46         9.5440
   417.60         9.5007
   417.74         9.4719
   417.88         9.4591
   418.02         9.4620
   418.16         9.4785
   418.30         9.5052
   418.44         9.5365
   418.58         9.5649
   418.72         9.5835
   418.86         9.5882
   419.00         9.5781
   419.14         9.5544
   419.28         9.5192
   419.42         9.4757
   419.56         9.4286
   419.70         9.3838
   419.84         9.3476
   419.98         9.3276
   420.12         9.3297
   420.26         9.3558
   420.40         9.4036
   420.54         9.4676
   420.68         9.5400
   420.82         9.6122
   420.96         9.6759
   421.10         9.7242
   421.24         9.7519
   421.38         9.7547
   421.52         9.7296
   421.66         9.6770
   421.80         9.6024
   421.94         9.5155
   422.08         9.4275
   422.22         9.3477
   422.36         9.2827
   422.50         9.2359
   422.64         9.2083
   422.78         9.1981
   422.92         9.2025
   423.06         9.2193
   423.20         9.2461
   423.34         9.2802
   423.48         9.3175
   423.62         9.3521
   423.76         9.3777
   423.90         9.3902
   424.04         9.3898
   424.18         9.3806
   424.32         9.3685
   424.46         9.3587
   424.60         9.3529
   424.74         9.3488
   424.88         9.3431
   425.02         9.3345
   425.16         9.3249
   425.30         9.3180
   425.44         9.3174
   425.58         9.3241
   425.72         9.3362
   425.86         9.3493
   426.00         9.3577
   426.14         9.3559
   426.28         9.3406
   426.42         9.3126
   426.56         9.2760
   426.70         9.2359
   426.84         9.1959
   426.98         9.1595
   427.12         9.1302
   427.26         9.1105
   427.40         9.1009
   427.54         9.0999
   427.68         9.1038
   427.82         9.1077
   427.96         9.1064
   428.10         9.0965
   428.24         9.0760
   428.38         9.0438
   428.52         8.9992
   428.66         8.9417
   428.80         8.8721
   428.94         8.7917
   429.08         8.7013
   429.22         8.6011
   429.36         8.4907
   429.50         8.3695
   429.64         8.2375
   429.78         8.0970
   429.92         7.9530
   430.06         7.8139
   430.20         7.6906
   430.34         7.5963
   430.48         7.5456
   430.62         7.5508
   430.76         7.6171
   430.90         7.7411
   431.04         7.9113
   431.18         8.1107
   431.32         8.3205
   431.46         8.5233
   431.60         8.7061
   431.74         8.8614
   431.88         8.9864
   432.02         9.0806
   432.16         9.1459
   432.30         9.1871
   432.44         9.2102
   432.58         9.2189
   432.72         9.2123
   432.86         9.1856
   433.00         9.1350
   433.14         9.0599
   433.28         8.9629
   433.42         8.8502
   433.56         8.7304
   433.70         8.6143
   433.84         8.5138
   433.98         8.4412
   434.12         8.4072
   434.26         8.4203
   434.40         8.4830
   434.54         8.5910
   434.68         8.7340
   434.82         8.8987
   434.96         9.0714
   435.10         9.2387
   435.24         9.3904
   435.38         9.5214
   435.52         9.6330
   435.66         9.7307
   435.80         9.8195
   435.94         9.9014
   436.08         9.9752
   436.22         10.0368
   436.36         10.0818
   436.50         10.1069
   436.64         10.1113
   436.78         10.0984
   436.92         10.0729
   437.06         10.0363
   437.20         9.9872
   437.34         9.9244
   437.48         9.8503
   437.62         9.7697
   437.76         9.6882
   437.90         9.6110
   438.04         9.5425
   438.18         9.4857
   438.32         9.4427
   438.46         9.4153
   438.60         9.4045
   438.74         9.4104
   438.88         9.4316
   439.02         9.4665
   439.16         9.5116
   439.30         9.5610
   439.44         9.6074
   439.58         9.6446
   439.72         9.6689
   439.86         9.6814
   440.00         9.6884
   440.14         9.6960
   440.28         9.7075
   440.42         9.7228
   440.56         9.7416
   440.70         9.7638
   440.84         9.7891
   440.98         9.8168
   441.12         9.8453
   441.26         9.8730
   441.40         9.8985
   441.54         9.9217
   441.68         9.9431
   441.82         9.9632
   441.96         9.9825
   442.10         10.0021
   442.24         10.0225
   442.38         10.0426
   442.52         10.0614
   442.66         10.0783
   442.80         10.0930
   442.94         10.1053
   443.08         10.1156
   443.22         10.1251
   443.36         10.1341
   443.50         10.1425
   443.64         10.1502
   443.78         10.1585
   443.92         10.1680
   444.06         10.1783
   444.20         10.1873
   444.34         10.1913
   444.48         10.1861
   444.62         10.1680
   444.76         10.1357
   444.90         10.0905
   445.04         10.0364
   445.18         9.9779
   445.32         9.9193
   445.46         9.8644
   445.60         9.8164
   445.74         9.7784
   445.88         9.7533
   446.02         9.7442
   446.16         9.7546
   446.30         9.7873
   446.44         9.8423
   446.58         9.9167
   446.72         10.0042
   446.86         10.0957
   447.00         10.1820
   447.14         10.2560
   447.28         10.3144
   447.42         10.3571
   447.56         10.3855
   447.70         10.4004
   447.84         10.4024
   447.98         10.3941
   448.12         10.3795
   448.26         10.3623
   448.40         10.3463
   448.54         10.3357
   448.68         10.3350
   448.82         10.3471
   448.96         10.3714
   449.10         10.4059
   449.24         10.4485
   449.38         10.4970
   449.52         10.5503
   449.66         10.6090
   449.80         10.6739
   449.94         10.7447
   450.08         10.8179
   450.22         10.8874
   450.36         10.9465
   450.50         10.9910
   450.64         11.0199
   450.78         11.0330
   450.92         11.0313
   451.06         11.0170
   451.20         10.9924
   451.34         10.9581
   451.48         10.9132
   451.62         10.8565
   451.76         10.7877
   451.90         10.7065
   452.04         10.6126
   452.18         10.5069
   452.32         10.3925
   452.46         10.2759
   452.60         10.1658
   452.74         10.0717
   452.88         10.0022
   453.02         9.9639
   453.16         9.9600
   453.30         9.9890
   453.44         10.0447
   453.58         10.1173
   453.72         10.1945
   453.86         10.2636
   454.00         10.3145
   454.14         10.3410
   454.28         10.3417
   454.42         10.3196
   454.56         10.2813
   454.70         10.2364
   454.84         10.1957
   454.98         10.1687
   455.12         10.1616
   455.26         10.1769
   455.40         10.2141
   455.54         10.2704
   455.68         10.3404
   455.82         10.4168
   455.96         10.4920
   456.10         10.5603
   456.24         10.6175
   456.38         10.6614
   456.52         10.6923
   456.66         10.7112
   456.80         10.7191
   456.94         10.7167
   457.08         10.7047
   457.22         10.6844
   457.36         10.6567
   457.50         10.6216
   457.64         10.5798
   457.78         10.5339
   457.92         10.4875
   458.06         10.4437
   458.20         10.4046
   458.34         10.3712
   458.48         10.3436
   458.62         10.3216
   458.76         10.3058
   458.90         10.2972
   459.04         10.2957
   459.18         10.3004
   459.32         10.3091
   459.46         10.3203
   459.60         10.3349
   459.74         10.3555
   459.88         10.3846
   460.02         10.4223
   460.16         10.4669
   460.30         10.5156
   460.44         10.5652
