# File HD108
# Wavelength [nm]    Normalized Amplitude
   349.70         813.1753
   349.84         813.6775
   349.98         814.1004
   350.12         814.4398
   350.26         814.7063
   350.40         814.9414
   350.54         815.1944
   350.68         815.4637
   350.82         815.7000
   350.96         815.8512
   351.10         815.9014
   351.24         815.8512
   351.38         815.7000
   351.52         815.4637
   351.66         815.1944
   351.80         814.9414
   351.94         814.7063
   352.08         814.4398
   352.22         814.1004
   352.36         813.6775
   352.50         813.1753
   352.64         812.5828
   352.78         811.8676
   352.92         811.0012
   353.06         809.9399
   353.20         808.5986
   353.34         806.8657
   353.48         804.6538
   353.62         801.9308
   353.76         798.7291
   353.90         795.1799
   354.04         791.5480
   354.18         788.1584
   354.32         785.2721
   354.46         783.0350
   354.60         781.5108
   354.74         780.6981
   354.88         780.5283
   355.02         780.8459
   355.16         781.4002
   355.30         781.8623
   355.44         781.8949
   355.58         781.2590
   355.72         779.8516
   355.86         777.6695
   356.00         774.7630
   356.14         771.2577
   356.28         767.3824
   356.42         763.4119
   356.56         759.6039
   356.70         756.1210
   356.84         752.9616
   356.98         750.0202
   357.12         747.1775
   357.26         744.3150
   357.40         741.3198
   357.54         738.1274
   357.68         734.7532
   357.82         731.3011
   357.96         727.9680
   358.10         725.0145
   358.24         722.6718
   358.38         721.0519
   358.52         720.1336
   358.66         719.8138
   358.80         719.9410
   358.94         720.3247
   359.08         720.7599
   359.22         721.0632
   359.36         721.1415
   359.50         721.0090
   359.64         720.7366
   359.78         720.3987
   359.92         720.0504
   360.06         719.7486
   360.20         719.5523
   360.34         719.4797
   360.48         719.4783
   360.62         719.4440
   360.76         719.2391
   360.90         718.6808
   361.04         717.5704
   361.18         715.7781
   361.32         713.2960
   361.46         710.2176
   361.60         706.7126
   361.74         702.9958
   361.88         699.2883
   362.02         695.7727
   362.16         692.5165
   362.30         689.5481
   362.44         686.9825
   362.58         684.9714
   362.72         683.6287
   362.86         683.0015
   363.00         683.0505
   363.14         683.6516
   363.28         684.6365
   363.42         685.8409
   363.56         687.1239
   363.70         688.3903
   363.84         689.5901
   363.98         690.6631
   364.12         691.5041
   364.26         691.9980
   364.40         692.0838
   364.54         691.7956
   364.68         691.2325
   364.82         690.5321
   364.96         689.8790
   365.10         689.4132
   365.24         689.1330
   365.38         688.9791
   365.52         688.9225
   365.66         688.9478
   365.80         689.0450
   365.94         689.2193
   366.08         689.4681
   366.22         689.7024
   366.36         689.7634
   366.50         689.5358
   366.64         688.9780
   366.78         688.0950
   366.92         686.9283
   367.06         685.5501
   367.20         684.0424
   367.34         682.4672
   367.48         680.8891
   367.62         679.3926
   367.76         678.0326
   367.90         676.8214
   368.04         675.7488
   368.18         674.7923
   368.32         673.9142
   368.46         673.0621
   368.60         672.1863
   368.74         671.2340
   368.88         670.1345
   369.02         668.8436
   369.16         667.3799
   369.30         665.7897
   369.44         664.1168
   369.58         662.4161
   369.72         660.7696
   369.86         659.2640
   370.00         657.9485
   370.14         656.8023
   370.28         655.7507
   370.42         654.7395
   370.56         653.7701
   370.70         652.8737
   370.84         652.0995
   370.98         651.4791
   371.12         651.0092
   371.26         650.6777
   371.40         650.4531
   371.54         650.2967
   371.68         650.1793
   371.82         650.0840
   371.96         649.9910
   372.10         649.8455
   372.24         649.5784
   372.38         649.1347
   372.52         648.4882
   372.66         647.6657
   372.80         646.7550
   372.94         645.8964
   373.08         645.2474
   373.22         644.9055
   373.36         644.8499
   373.50         644.9618
   373.64         645.0841
   373.78         645.0485
   373.92         644.6560
   374.06         643.6962
   374.20         642.0020
   374.34         639.4377
   374.48         635.9053
   374.62         631.4131
   374.76         626.1218
   374.90         620.3521
   375.04         614.5837
   375.18         609.3443
   375.32         605.0165
   375.46         601.7734
   375.60         599.6265
   375.74         598.4785
   375.88         598.1129
   376.02         598.2384
   376.16         598.6223
   376.30         599.1447
   376.44         599.7660
   376.58         600.5052
   376.72         601.4374
   376.86         602.6623
   377.00         604.2533
   377.14         606.2547
   377.28         608.7136
   377.42         611.6688
   377.56         615.0812
   377.70         618.7529
   377.84         622.2971
   377.98         625.2902
   378.12         627.4473
   378.26         628.6381
   378.40         628.8350
   378.54         628.0738
   378.68         626.4778
   378.82         624.2658
   378.96         621.7461
   379.10         619.3048
   379.24         617.3386
   379.38         616.1674
   379.52         615.9696
   379.66         616.7743
   379.80         618.4835
   379.94         620.9221
   380.08         623.8749
   380.22         627.0783
   380.36         630.2075
   380.50         632.9385
   380.64         635.0412
   380.78         636.3867
   380.92         636.9428
   381.06         636.7948
   381.20         636.1400
   381.34         635.2368
   381.48         634.3237
   381.62         633.5617
   381.76         632.9801
   381.90         632.4384
   382.04         631.6538
   382.18         630.3163
   382.32         628.2411
   382.46         625.4109
   382.60         621.9460
   382.74         618.0711
   382.88         614.0402
   383.02         610.1103
   383.16         606.5806
   383.30         603.7643
   383.44         601.8992
   383.58         601.1030
   383.72         601.3632
   383.86         602.5173
   384.00         604.2715
   384.14         606.2624
   384.28         608.1400
   384.42         609.6187
   384.56         610.4865
   384.70         610.6384
   384.84         610.1125
   384.98         609.0441
   385.12         607.5923
   385.26         605.9264
   385.40         604.2175
   385.54         602.6039
   385.68         601.1841
   385.82         600.0207
   385.96         599.1185
   386.10         598.4218
   386.24         597.8508
   386.38         597.3129
   386.52         596.7067
   386.66         595.9479
   386.80         594.9636
   386.94         593.6705
   387.08         591.9676
   387.22         589.7750
   387.36         587.0906
   387.50         584.0081
   387.64         580.6964
   387.78         577.3460
   387.92         574.1128
   388.06         571.1045
   388.20         568.4072
   388.34         566.1194
   388.48         564.3543
   388.62         563.2195
   388.76         562.7961
   388.90         563.1246
   389.04         564.1842
   389.18         565.8859
   389.32         568.0834
   389.46         570.5722
   389.60         573.1100
   389.74         575.4909
   389.88         577.5833
   390.02         579.2952
   390.16         580.5454
   390.30         581.2383
   390.44         581.2718
   390.58         580.5938
   390.72         579.2400
   390.86         577.3116
   391.00         574.9352
   391.14         572.2340
   391.28         569.3607
   391.42         566.5167
   391.56         563.9013
   391.70         561.6724
   391.84         559.9117
   391.98         558.5798
   392.12         557.5357
   392.26         556.6460
   392.40         555.8768
   392.54         555.2707
   392.68         554.8854
   392.82         554.7743
   392.96         554.9769
   393.10         555.5146
   393.24         556.3798
   393.38         557.5298
   393.52         558.8859
   393.66         560.3526
   393.80         561.8547
   393.94         563.3426
   394.08         564.7266
   394.22         565.8412
   394.36         566.4966
   394.50         566.5251
   394.64         565.8209
   394.78         564.3977
   394.92         562.3687
   395.06         559.8414
   395.20         556.8402
   395.34         553.3001
   395.48         549.1333
   395.62         544.3267
   395.76         538.9970
   395.90         533.3893
   396.04         527.8274
   396.18         522.6902
   396.32         518.3788
   396.46         515.2229
   396.60         513.4060
   396.74         512.9304
   396.88         513.6594
   397.02         515.3652
   397.16         517.7473
   397.30         520.4806
   397.44         523.2344
   397.58         525.6920
   397.72         527.6068
   397.86         528.8318
   398.00         529.3139
   398.14         529.1207
   398.28         528.4534
   398.42         527.5592
   398.56         526.6242
   398.70         525.7372
   398.84         524.9168
   398.98         524.1227
   399.12         523.2936
   399.26         522.4009
   399.40         521.4448
   399.54         520.4516
   399.68         519.4615
   399.82         518.5203
   399.96         517.6730
   400.10         516.9412
   400.24         516.3368
   400.38         515.8660
   400.52         515.5026
   400.66         515.1778
   400.80         514.8038
   400.94         514.2807
   401.08         513.4638
   401.22         512.1833
   401.36         510.3186
   401.50         507.8520
   401.64         504.8826
   401.78         501.6065
   401.92         498.2635
   402.06         495.0963
   402.20         492.3392
   402.34         490.2056
   402.48         488.8586
   402.62         488.3608
   402.76         488.6517
   402.90         489.5851
   403.04         490.9687
   403.18         492.5852
   403.32         494.2244
   403.46         495.7068
   403.60         496.8956
   403.74         497.7136
   403.88         498.1728
   404.02         498.3576
   404.16         498.3696
   404.30         498.2847
   404.44         498.1243
   404.58         497.8624
   404.72         497.4666
   404.86         496.9253
   405.00         496.2459
   405.14         495.4446
   405.28         494.5352
   405.42         493.5386
   405.56         492.4986
   405.70         491.4639
   405.84         490.4665
   405.98         489.5218
   406.12         488.6329
   406.26         487.8072
   406.40         487.0527
   406.54         486.3594
   406.68         485.6981
   406.82         485.0457
   406.96         484.3939
   407.10         483.7510
   407.24         483.1442
   407.38         482.5855
   407.52         482.0346
   407.66         481.4051
   407.80         480.6019
   407.94         479.5516
   408.08         478.2182
   408.22         476.5936
   408.36         474.6688
   408.50         472.4258
   408.64         469.8765
   408.78         467.1223
   408.92         464.3666
   409.06         461.8440
   409.20         459.7296
   409.34         458.1229
   409.48         457.0738
   409.62         456.5953
   409.76         456.6578
   409.90         457.1801
   410.04         458.0482
   410.18         459.1521
   410.32         460.3865
   410.46         461.6418
   410.60         462.8069
   410.74         463.7777
   410.88         464.4869
   411.02         464.9176
   411.16         465.1086
   411.30         465.1445
   411.44         465.0997
   411.58         464.9930
   411.72         464.7674
   411.86         464.3347
   412.00         463.6725
   412.14         462.8336
   412.28         461.8904
   412.42         460.8955
   412.56         459.8822
   412.70         458.8841
   412.84         457.9242
   412.98         456.9924
   413.12         456.0669
   413.26         455.1400
   413.40         454.2172
   413.54         453.3033
   413.68         452.3813
   413.82         451.4290
   413.96         450.4389
   414.10         449.4161
   414.24         448.3895
   414.38         447.3950
   414.52         446.4740
   414.66         445.6690
   414.80         444.9828
   414.94         444.3766
   415.08         443.7911
   415.22         443.1739
   415.36         442.5063
   415.50         441.7956
   415.64         441.0633
   415.78         440.3529
   415.92         439.7184
   416.06         439.1921
   416.20         438.7721
   416.34         438.4449
   416.48         438.2031
   416.62         438.0369
   416.76         437.9336
   416.90         437.8767
   417.04         437.8302
   417.18         437.7271
   417.32         437.4618
   417.46         436.9227
   417.60         436.0496
   417.74         434.8427
   417.88         433.3593
   418.02         431.6897
   418.16         429.9112
   418.30         428.0722
   418.44         426.1806
   418.58         424.1998
   418.72         422.0733
   418.86         419.7726
   419.00         417.3498
   419.14         414.9175
   419.28         412.5956
   419.42         410.4914
   419.56         408.6942
   419.70         407.2840
   419.84         406.3305
   419.98         405.8818
   420.12         405.9647
   420.26         406.5574
   420.40         407.5597
   420.54         408.8090
   420.68         410.1022
   420.82         411.2437
   420.96         412.0873
   421.10         412.5413
   421.24         412.5982
   421.38         412.3441
   421.52         411.9194
   421.66         411.4694
   421.80         411.0891
   421.94         410.8198
   422.08         410.6795
   422.22         410.6726
   422.36         410.7803
   422.50         410.9515
   422.64         411.1228
   422.78         411.2412
   422.92         411.2626
   423.06         411.1619
   423.20         410.9450
   423.34         410.6412
   423.48         410.2972
   423.62         409.9544
   423.76         409.6291
   423.90         409.3253
   424.04         409.0473
   424.18         408.7900
   424.32         408.5365
   424.46         408.2571
   424.60         407.9099
   424.74         407.4595
   424.88         406.8939
   425.02         406.2275
   425.16         405.4978
   425.30         404.7580
   425.44         404.0654
   425.58         403.4677
   425.72         402.9995
   425.86         402.6710
   426.00         402.4660
   426.14         402.3512
   426.28         402.2806
   426.42         402.2090
   426.56         402.1063
   426.70         401.9522
   426.84         401.7247
   426.98         401.4027
   427.12         400.9696
   427.26         400.4184
   427.40         399.7640
   427.54         399.0410
   427.68         398.2760
   427.82         397.4821
   427.96         396.6801
   428.10         395.8979
   428.24         395.1642
   428.38         394.5086
   428.52         393.9542
   428.66         393.5261
   428.80         393.2487
   428.94         393.1332
   429.08         393.1830
   429.22         393.3828
   429.36         393.6839
   429.50         394.0074
   429.64         394.2567
   429.78         394.3551
   429.92         394.2638
   430.06         393.9769
   430.20         393.5205
   430.34         392.9355
   430.48         392.2712
   430.62         391.5853
   430.76         390.9396
   430.90         390.3981
   431.04         390.0072
   431.18         389.7862
   431.32         389.7410
   431.46         389.8638
   431.60         390.1283
   431.74         390.4912
   431.88         390.8851
   432.02         391.2149
   432.16         391.3697
   432.30         391.2324
   432.44         390.7030
   432.58         389.7747
   432.72         388.6215
   432.86         387.5663
   433.00         386.9150
   433.14         386.8305
   433.28         387.3406
   433.42         388.3922
   433.56         389.8728
   433.70         391.6145
   433.84         393.4174
   433.98         395.0772
   434.12         396.3944
   434.26         397.2043
   434.40         397.4060
   434.54         396.9688
   434.68         395.9406
   434.82         394.4495
   434.96         392.7027
   435.10         390.9828
   435.24         389.5965
   435.38         388.7467
   435.52         388.4255
   435.66         388.4405
   435.80         388.5578
   435.94         388.6254
   436.08         388.5720
   436.22         388.3652
   436.36         387.9811
   436.50         387.3907
   436.64         386.5707
   436.78         385.5204
   436.92         384.2763
   437.06         382.8932
   437.20         381.4276
   437.34         379.9331
   437.48         378.4579
   437.62         377.0492
   437.76         375.7459
   437.90         374.5701
   438.04         373.5354
   438.18         372.6532
   438.32         371.9340
   438.46         371.3789
   438.60         370.9766
   438.74         370.7074
   438.88         370.5489
   439.02         370.4610
   439.16         370.3916
   439.30         370.3103
   439.44         370.2091
   439.58         370.0706
   439.72         369.8569
   439.86         369.5351
   440.00         369.0943
   440.14         368.5503
   440.28         367.9427
   440.42         367.3182
   440.56         366.7144
   440.70         366.1445
   440.84         365.5914
   440.98         365.0111
   441.12         364.3286
   441.26         363.4520
   441.40         362.3025
   441.54         360.8320
   441.68         359.0297
   441.82         356.9335
   441.96         354.6213
   442.10         352.1909
   442.24         349.7540
   442.38         347.4356
   442.52         345.3658
   442.66         343.6582
   442.80         342.3928
   442.94         341.6103
   443.08         341.2974
   443.22         341.3917
   443.36         341.8064
   443.50         342.4503
   443.64         343.2324
   443.78         344.0664
   443.92         344.8885
   444.06         345.6633
   444.20         346.3673
   444.34         346.9673
   444.48         347.4173
   444.62         347.6716
   444.76         347.7000
   444.90         347.5044
   445.04         347.1142
   445.18         346.5746
   445.32         345.9261
   445.46         345.1870
   445.60         344.3493
   445.74         343.4028
   445.88         342.3843
   446.02         341.3861
   446.16         340.5078
   446.30         339.8184
   446.44         339.3570
   446.58         339.1327
   446.72         339.1265
   446.86         339.3027
   447.00         339.6137
   447.14         340.0085
   447.28         340.4387
   447.42         340.8539
   447.56         341.2038
   447.70         341.4283
   447.84         341.4585
   447.98         341.2504
   448.12         340.8083
   448.26         340.1843
   448.40         339.4772
   448.54         338.8081
   448.68         338.2595
   448.82         337.8419
   448.96         337.5311
   449.10         337.3141
   449.24         337.1848
   449.38         337.1297
   449.52         337.1108
   449.66         337.0564
   449.80         336.8792
   449.94         336.5000
   450.08         335.8633
   450.22         334.9373
   450.36         333.7130
   450.50         332.2275
   450.64         330.5781
   450.78         328.8941
   450.92         327.2968
   451.06         325.8924
   451.20         324.7722
   451.34         323.9926
   451.48         323.5735
   451.62         323.4993
   451.76         323.7150
   451.90         324.1240
   452.04         324.6038
   452.18         325.0362
   452.32         325.3330
   452.46         325.4285
   452.60         325.2540
   452.74         324.7287
   452.88         323.7704
