# File HD107214
# Wavelength [nm]    Normalized Amplitude
   349.70         9.4607
   349.84         9.4930
   349.98         9.5612
   350.12         9.6539
   350.26         9.7594
   350.40         9.8673
   350.54         9.9686
   350.68         10.0553
   350.82         10.1211
   350.96         10.1617
   351.10         10.1753
   351.24         10.1617
   351.38         10.1211
   351.52         10.0553
   351.66         9.9686
   351.80         9.8673
   351.94         9.7594
   352.08         9.6539
   352.22         9.5612
   352.36         9.4930
   352.50         9.4607
   352.64         9.4731
   352.78         9.5347
   352.92         9.6440
   353.06         9.7933
   353.20         9.9714
   353.34         10.1644
   353.48         10.3579
   353.62         10.5377
   353.76         10.6916
   353.90         10.8117
   354.04         10.8959
   354.18         10.9473
   354.32         10.9705
   354.46         10.9699
   354.60         10.9496
   354.74         10.9150
   354.88         10.8728
   355.02         10.8296
   355.16         10.7904
   355.30         10.7561
   355.44         10.7231
   355.58         10.6858
   355.72         10.6384
   355.86         10.5744
   356.00         10.4868
   356.14         10.3691
   356.28         10.2185
   356.42         10.0362
   356.56         9.8261
   356.70         9.5942
   356.84         9.3471
   356.98         9.0910
   357.12         8.8312
   357.26         8.5742
   357.40         8.3281
   357.54         8.1005
   357.68         7.8972
   357.82         7.7233
   357.96         7.5848
   358.10         7.4896
   358.24         7.4453
   358.38         7.4574
   358.52         7.5277
   358.66         7.6561
   358.80         7.8385
   358.94         8.0665
   359.08         8.3265
   359.22         8.5997
   359.36         8.8652
   359.50         9.1032
   359.64         9.2971
   359.78         9.4346
   359.92         9.5091
   360.06         9.5211
   360.20         9.4785
   360.34         9.3948
   360.48         9.2880
   360.62         9.1762
   360.76         9.0719
   360.90         8.9815
   361.04         8.9083
   361.18         8.8554
   361.32         8.8250
   361.46         8.8195
   361.60         8.8408
   361.74         8.8898
   361.88         8.9650
   362.02         9.0613
   362.16         9.1701
   362.30         9.2796
   362.44         9.3778
   362.58         9.4576
   362.72         9.5179
   362.86         9.5612
   363.00         9.5914
   363.14         9.6125
   363.28         9.6256
   363.42         9.6298
   363.56         9.6256
   363.70         9.6168
   363.84         9.6090
   363.98         9.6095
   364.12         9.6250
   364.26         9.6610
   364.40         9.7210
   364.54         9.8045
   364.68         9.9093
   364.82         10.0336
   364.96         10.1777
   365.10         10.3434
   365.24         10.5303
   365.38         10.7334
   365.52         10.9420
   365.66         11.1393
   365.80         11.3071
   365.94         11.4307
   366.08         11.5029
   366.22         11.5242
   366.36         11.5017
   366.50         11.4467
   366.64         11.3724
   366.78         11.2907
   366.92         11.2103
   367.06         11.1368
   367.20         11.0724
   367.34         11.0171
   367.48         10.9699
   367.62         10.9290
   367.76         10.8906
   367.90         10.8519
   368.04         10.8125
   368.18         10.7750
   368.32         10.7434
   368.46         10.7233
   368.60         10.7206
   368.74         10.7407
   368.88         10.7863
   369.02         10.8580
   369.16         10.9539
   369.30         11.0662
   369.44         11.1810
   369.58         11.2818
   369.72         11.3537
   369.86         11.3850
   370.00         11.3706
   370.14         11.3137
   370.28         11.2263
   370.42         11.1266
   370.56         11.0329
   370.70         10.9579
   370.84         10.9051
   370.98         10.8690
   371.12         10.8409
   371.26         10.8144
   371.40         10.7872
   371.54         10.7586
   371.68         10.7268
   371.82         10.6894
   371.96         10.6448
   372.10         10.5923
   372.24         10.5309
   372.38         10.4580
   372.52         10.3719
   372.66         10.2748
   372.80         10.1729
   372.94         10.0724
   373.08         9.9753
   373.22         9.8791
   373.36         9.7804
   373.50         9.6778
   373.64         9.5731
   373.78         9.4711
   373.92         9.3781
   374.06         9.2991
   374.20         9.2375
   374.34         9.1979
   374.48         9.1859
   374.62         9.2027
   374.76         9.2431
   374.90         9.3021
   375.04         9.3793
   375.18         9.4781
   375.32         9.5999
   375.46         9.7404
   375.60         9.8879
   375.74         10.0264
   375.88         10.1405
   376.02         10.2197
   376.16         10.2623
   376.30         10.2756
   376.44         10.2751
   376.58         10.2814
   376.72         10.3171
   376.86         10.4027
   377.00         10.5518
   377.14         10.7679
   377.28         11.0429
   377.42         11.3615
   377.56         11.7026
   377.70         12.0411
   377.84         12.3502
   377.98         12.6059
   378.12         12.7900
   378.26         12.8894
   378.40         12.8964
   378.54         12.8092
   378.68         12.6345
   378.82         12.3890
   378.96         12.0993
   379.10         11.7989
   379.24         11.5224
   379.38         11.3010
   379.52         11.1578
   379.66         11.1074
   379.80         11.1540
   379.94         11.2897
   380.08         11.4955
   380.22         11.7463
   380.36         12.0147
   380.50         12.2742
   380.64         12.4998
   380.78         12.6681
   380.92         12.7592
   381.06         12.7629
   381.20         12.6796
   381.34         12.5185
   381.48         12.2959
   381.62         12.0309
   381.76         11.7396
   381.90         11.4319
   382.04         11.1139
   382.18         10.7906
   382.32         10.4656
   382.46         10.1404
   382.60         9.8154
   382.74         9.4951
   382.88         9.1916
   383.02         8.9247
   383.16         8.7184
   383.30         8.5940
   383.44         8.5654
   383.58         8.6402
   383.72         8.8177
   383.86         9.0866
   384.00         9.4296
   384.14         9.8276
   384.28         10.2579
   384.42         10.6911
   384.56         11.0948
   384.70         11.4399
   384.84         11.7055
   384.98         11.8840
   385.12         11.9833
   385.26         12.0219
   385.40         12.0234
   385.54         12.0120
   385.68         12.0069
   385.82         12.0167
   385.96         12.0402
   386.10         12.0719
   386.24         12.1066
   386.38         12.1390
   386.52         12.1629
   386.66         12.1711
   386.80         12.1576
   386.94         12.1175
   387.08         12.0478
   387.22         11.9498
   387.36         11.8285
   387.50         11.6894
   387.64         11.5376
   387.78         11.3769
   387.92         11.2101
   388.06         11.0418
   388.20         10.8798
   388.34         10.7340
   388.48         10.6169
   388.62         10.5426
   388.76         10.5245
   388.90         10.5705
   389.04         10.6795
   389.18         10.8423
   389.32         11.0450
   389.46         11.2715
   389.60         11.5035
   389.74         11.7229
   389.88         11.9159
   390.02         12.0758
   390.16         12.2020
   390.30         12.2983
   390.44         12.3709
   390.58         12.4247
   390.72         12.4610
   390.86         12.4773
   391.00         12.4697
   391.14         12.4339
   391.28         12.3641
   391.42         12.2540
   391.56         12.0963
   391.70         11.8819
   391.84         11.6015
   391.98         11.2479
   392.12         10.8190
   392.26         10.3199
   392.40         9.7645
   392.54         9.1755
   392.68         8.5829
   392.82         8.0204
   392.96         7.5222
   393.10         7.1209
   393.24         6.8442
   393.38         6.7129
   393.52         6.7383
   393.66         6.9205
   393.80         7.2475
   393.94         7.6953
   394.08         8.2289
   394.22         8.8068
   394.36         9.3870
   394.50         9.9329
   394.64         10.4172
   394.78         10.8222
   394.92         11.1364
   395.06         11.3531
   395.20         11.4668
   395.34         11.4710
   395.48         11.3591
   395.62         11.1260
   395.76         10.7742
   395.90         10.3188
   396.04         9.7891
   396.18         9.2256
   396.32         8.6756
   396.46         8.1883
   396.60         7.8086
   396.74         7.5735
   396.88         7.5089
   397.02         7.6259
   397.16         7.9194
   397.30         8.3684
   397.44         8.9381
   397.58         9.5848
   397.72         10.2622
   397.86         10.9272
   398.00         11.5446
   398.14         12.0908
   398.28         12.5548
   398.42         12.9378
   398.56         13.2492
   398.70         13.5025
   398.84         13.7123
   398.98         13.8913
   399.12         14.0487
   399.26         14.1887
   399.40         14.3116
   399.54         14.4161
   399.68         14.5015
   399.82         14.5700
   399.96         14.6260
   400.10         14.6755
   400.24         14.7237
   400.38         14.7730
   400.52         14.8235
   400.66         14.8742
   400.80         14.9231
   400.94         14.9688
   401.08         15.0111
   401.22         15.0495
   401.36         15.0848
   401.50         15.1193
   401.64         15.1543
   401.78         15.1874
   401.92         15.2128
   402.06         15.2247
   402.20         15.2193
   402.34         15.1968
   402.48         15.1606
   402.62         15.1166
   402.76         15.0713
   402.90         15.0297
   403.04         14.9955
   403.18         14.9696
   403.32         14.9497
   403.46         14.9323
   403.60         14.9161
   403.74         14.9026
   403.88         14.8937
   404.02         14.8910
   404.16         14.8936
   404.30         14.8976
   404.44         14.8970
   404.58         14.8882
   404.72         14.8716
   404.86         14.8519
   405.00         14.8336
   405.14         14.8177
   405.28         14.8005
   405.42         14.7771
   405.56         14.7432
   405.70         14.6974
   405.84         14.6412
   405.98         14.5799
   406.12         14.5224
   406.26         14.4766
   406.40         14.4444
   406.54         14.4198
   406.68         14.3937
   406.82         14.3611
   406.96         14.3220
   407.10         14.2807
   407.24         14.2434
   407.38         14.2179
   407.52         14.2113
   407.66         14.2286
   407.80         14.2729
   407.94         14.3459
   408.08         14.4469
   408.22         14.5690
   408.36         14.6996
   408.50         14.8213
   408.64         14.9152
   408.78         14.9626
   408.92         14.9463
   409.06         14.8537
   409.20         14.6829
   409.34         14.4463
   409.48         14.1667
   409.62         13.8705
   409.76         13.5843
   409.90         13.3338
   410.04         13.1432
   410.18         13.0321
   410.32         13.0126
   410.46         13.0878
   410.60         13.2512
   410.74         13.4861
   410.88         13.7691
   411.02         14.0739
   411.16         14.3752
   411.30         14.6519
   411.44         14.8884
   411.58         15.0757
   411.72         15.2128
   411.86         15.3052
   412.00         15.3598
   412.14         15.3821
   412.28         15.3789
   412.42         15.3598
   412.56         15.3363
   412.70         15.3186
   412.84         15.3129
   412.98         15.3208
   413.12         15.3397
   413.26         15.3639
   413.40         15.3884
   413.54         15.4110
   413.68         15.4303
   413.82         15.4451
   413.96         15.4535
   414.10         15.4519
   414.24         15.4366
   414.38         15.4048
   414.52         15.3562
   414.66         15.2929
   414.80         15.2212
   414.94         15.1516
   415.08         15.0944
   415.22         15.0567
   415.36         15.0422
   415.50         15.0507
   415.64         15.0788
   415.78         15.1215
   415.92         15.1736
   416.06         15.2281
   416.20         15.2759
   416.34         15.3076
   416.48         15.3151
   416.62         15.2927
   416.76         15.2394
   416.90         15.1588
   417.04         15.0588
   417.18         14.9491
   417.32         14.8397
   417.46         14.7399
   417.60         14.6565
   417.74         14.5929
   417.88         14.5495
   418.02         14.5248
   418.16         14.5164
   418.30         14.5206
   418.44         14.5329
   418.58         14.5468
   418.72         14.5558
   418.86         14.5545
   419.00         14.5404
   419.14         14.5128
   419.28         14.4743
   419.42         14.4314
   419.56         14.3927
   419.70         14.3662
   419.84         14.3583
   419.98         14.3756
   420.12         14.4221
   420.26         14.4972
   420.40         14.5960
   420.54         14.7109
   420.68         14.8329
   420.82         14.9522
   420.96         15.0591
   421.10         15.1440
   421.24         15.1973
   421.38         15.2094
   421.52         15.1734
   421.66         15.0884
   421.80         14.9616
   421.94         14.8070
   422.08         14.6401
   422.22         14.4739
   422.36         14.3180
   422.50         14.1790
   422.64         14.0626
   422.78         13.9722
   422.92         13.9114
   423.06         13.8835
   423.20         13.8908
   423.34         13.9313
   423.48         13.9979
   423.62         14.0783
   423.76         14.1575
   423.90         14.2230
   424.04         14.2681
   424.18         14.2933
   424.32         14.3051
   424.46         14.3107
   424.60         14.3140
   424.74         14.3132
   424.88         14.3040
   425.02         14.2854
   425.16         14.2619
   425.30         14.2415
   425.44         14.2315
   425.58         14.2356
   425.72         14.2532
   425.86         14.2789
   426.00         14.3043
   426.14         14.3207
   426.28         14.3234
   426.42         14.3127
   426.56         14.2928
   426.70         14.2694
   426.84         14.2474
   426.98         14.2319
   427.12         14.2271
   427.26         14.2344
   427.40         14.2528
   427.54         14.2803
   427.68         14.3132
   427.82         14.3445
   427.96         14.3641
   428.10         14.3628
   428.24         14.3345
   428.38         14.2769
   428.52         14.1894
   428.66         14.0739
   428.80         13.9343
   428.94         13.7760
   429.08         13.6033
   429.22         13.4194
   429.36         13.2265
   429.50         13.0257
   429.64         12.8182
   429.78         12.6064
   429.92         12.3951
   430.06         12.1929
   430.20         12.0124
   430.34         11.8705
   430.48         11.7865
   430.62         11.7778
   430.76         11.8551
   430.90         12.0179
   431.04         12.2534
   431.18         12.5384
   431.32         12.8444
   431.46         13.1437
   431.60         13.4149
   431.74         13.6454
   431.88         13.8294
   432.02         13.9658
   432.16         14.0577
   432.30         14.1125
   432.44         14.1386
   432.58         14.1413
   432.72         14.1195
   432.86         14.0670
   433.00         13.9783
   433.14         13.8508
   433.28         13.6878
   433.42         13.4989
   433.56         13.2988
   433.70         13.1057
   433.84         12.9399
   433.98         12.8208
   434.12         12.7656
   434.26         12.7873
   434.40         12.8904
   434.54         13.0693
   434.68         13.3091
   434.82         13.5886
   434.96         13.8848
   435.10         14.1753
   435.24         14.4428
   435.38         14.6789
   435.52         14.8835
   435.66         15.0616
   435.80         15.2181
   435.94         15.3554
   436.08         15.4721
   436.22         15.5632
   436.36         15.6228
   436.50         15.6468
   436.64         15.6353
   436.78         15.5936
   436.92         15.5294
   437.06         15.4478
   437.20         15.3492
   437.34         15.2328
   437.48         15.1022
   437.62         14.9649
   437.76         14.8290
   437.90         14.7022
   438.04         14.5904
   438.18         14.4982
   438.32         14.4301
   438.46         14.3911
   438.60         14.3853
   438.74         14.4130
   438.88         14.4699
   439.02         14.5483
   439.16         14.6373
   439.30         14.7242
   439.44         14.7964
   439.58         14.8447
   439.72         14.8651
   439.86         14.8612
   440.00         14.8439
   440.14         14.8250
   440.28         14.8116
   440.42         14.8072
   440.56         14.8139
   440.70         14.8346
   440.84         14.8728
   440.98         14.9302
   441.12         15.0052
   441.26         15.0936
   441.40         15.1896
   441.54         15.2881
   441.68         15.3855
   441.82         15.4792
   441.96         15.5671
   442.10         15.6474
   442.24         15.7173
   442.38         15.7724
   442.52         15.8092
   442.66         15.8261
   442.80         15.8228
   442.94         15.8014
   443.08         15.7671
   443.22         15.7281
   443.36         15.6941
   443.50         15.6732
   443.64         15.6692
   443.78         15.6833
   443.92         15.7139
   444.06         15.7563
   444.20         15.8027
   444.34         15.8432
   444.48         15.8664
   444.62         15.8613
   444.76         15.8204
   444.90         15.7415
   445.04         15.6292
   445.18         15.4933
   445.32         15.3468
   445.46         15.2028
   445.60         15.0728
   445.74         14.9671
   445.88         14.8952
   446.02         14.8646
   446.16         14.8797
   446.30         14.9398
   446.44         15.0402
   446.58         15.1721
   446.72         15.3235
   446.86         15.4799
   447.00         15.6275
   447.14         15.7560
   447.28         15.8606
   447.42         15.9422
   447.56         16.0036
   447.70         16.0459
   447.84         16.0693
   447.98         16.0756
   448.12         16.0674
   448.26         16.0478
   448.40         16.0229
   448.54         16.0001
   448.68         15.9866
   448.82         15.9860
   448.96         15.9985
   449.10         16.0238
   449.24         16.0623
   449.38         16.1140
   449.52         16.1792
   449.66         16.2588
   449.80         16.3523
   449.94         16.4563
   450.08         16.5630
   450.22         16.6618
   450.36         16.7433
   450.50         16.8026
   450.64         16.8377
   450.78         16.8483
   450.92         16.8357
   451.06         16.8027
   451.20         16.7524
   451.34         16.6864
   451.48         16.6049
   451.62         16.5075
   451.76         16.3944
   451.90         16.2658
   452.04         16.1215
   452.18         15.9629
   452.32         15.7934
   452.46         15.6197
   452.60         15.4521
   452.74         15.3028
   452.88         15.1835
   453.02         15.1037
   453.16         15.0686
   453.30         15.0776
   453.44         15.1256
   453.58         15.2027
   453.72         15.2946
   453.86         15.3858
   454.00         15.4628
   454.14         15.5167
   454.28         15.5446
   454.42         15.5488
   454.56         15.5361
   454.70         15.5157
   454.84         15.4980
   454.98         15.4934
   455.12         15.5095
   455.26         15.5503
   455.40         15.6141
   455.54         15.6955
   455.68         15.7877
   455.82         15.8831
   455.96         15.9749
   456.10         16.0585
   456.24         16.1328
   456.38         16.1985
   456.52         16.2580
   456.66         16.3123
   456.80         16.3592
   456.94         16.3945
   457.08         16.4140
   457.22         16.4148
   457.36         16.3951
   457.50         16.3540
   457.64         16.2928
