# File HD107132
# Wavelength [nm]    Normalized Amplitude
   349.70         9.5473
   349.84         9.5183
   349.98         9.5012
   350.12         9.4932
   350.26         9.4912
   350.40         9.4947
   350.54         9.5048
   350.68         9.5206
   350.82         9.5383
   350.96         9.5519
   351.10         9.5570
   351.24         9.5519
   351.38         9.5383
   351.52         9.5206
   351.66         9.5048
   351.80         9.4947
   351.94         9.4912
   352.08         9.4932
   352.22         9.5012
   352.36         9.5183
   352.50         9.5473
   352.64         9.5876
   352.78         9.6360
   352.92         9.6887
   353.06         9.7410
   353.20         9.7884
   353.34         9.8271
   353.48         9.8548
   353.62         9.8713
   353.76         9.8796
   353.90         9.8862
   354.04         9.8981
   354.18         9.9207
   354.32         9.9553
   354.46         9.9971
   354.60         10.0391
   354.74         10.0749
   354.88         10.1003
   355.02         10.1118
   355.16         10.1055
   355.30         10.0772
   355.44         10.0252
   355.58         9.9521
   355.72         9.8623
   355.86         9.7596
   356.00         9.6475
   356.14         9.5301
   356.28         9.4115
   356.42         9.2948
   356.56         9.1828
   356.70         9.0780
   356.84         8.9812
   356.98         8.8895
   357.12         8.7993
   357.26         8.7095
   357.40         8.6219
   357.54         8.5397
   357.68         8.4649
   357.82         8.3968
   357.96         8.3354
   358.10         8.2839
   358.24         8.2468
   358.38         8.2279
   358.52         8.2324
   358.66         8.2672
   358.80         8.3380
   358.94         8.4467
   359.08         8.5913
   359.22         8.7638
   359.36         8.9484
   359.50         9.1238
   359.64         9.2705
   359.78         9.3744
   359.92         9.4269
   360.06         9.4257
   360.20         9.3743
   360.34         9.2817
   360.48         9.1606
   360.62         9.0272
   360.76         8.8968
   360.90         8.7808
   361.04         8.6877
   361.18         8.6241
   361.32         8.5932
   361.46         8.5939
   361.60         8.6233
   361.74         8.6746
   361.88         8.7374
   362.02         8.8015
   362.16         8.8589
   362.30         8.9041
   362.44         8.9346
   362.58         8.9509
   362.72         8.9560
   362.86         8.9544
   363.00         8.9511
   363.14         8.9504
   363.28         8.9557
   363.42         8.9695
   363.56         8.9931
   363.70         9.0269
   363.84         9.0706
   363.98         9.1220
   364.12         9.1764
   364.26         9.2306
   364.40         9.2818
   364.54         9.3290
   364.68         9.3737
   364.82         9.4191
   364.96         9.4715
   365.10         9.5379
   365.24         9.6230
   365.38         9.7271
   365.52         9.8452
   365.66         9.9671
   365.80         10.0820
   365.94         10.1809
   366.08         10.2582
   366.22         10.3114
   366.36         10.3432
   366.50         10.3600
   366.64         10.3685
   366.78         10.3741
   366.92         10.3799
   367.06         10.3870
   367.20         10.3952
   367.34         10.4023
   367.48         10.4047
   367.62         10.3969
   367.76         10.3729
   367.90         10.3305
   368.04         10.2734
   368.18         10.2108
   368.32         10.1529
   368.46         10.1099
   368.60         10.0909
   368.74         10.1038
   368.88         10.1531
   369.02         10.2372
   369.16         10.3476
   369.30         10.4696
   369.44         10.5857
   369.58         10.6811
   369.72         10.7463
   369.86         10.7759
   370.00         10.7683
   370.14         10.7266
   370.28         10.6599
   370.42         10.5836
   370.56         10.5140
   370.70         10.4631
   370.84         10.4335
   370.98         10.4196
   371.12         10.4145
   371.26         10.4138
   371.40         10.4159
   371.54         10.4192
   371.68         10.4206
   371.82         10.4168
   371.96         10.4054
   372.10         10.3854
   372.24         10.3554
   372.38         10.3117
   372.52         10.2511
   372.66         10.1741
   372.80         10.0855
   372.94         9.9920
   373.08         9.8993
   373.22         9.8093
   373.36         9.7207
   373.50         9.6315
   373.64         9.5409
   373.78         9.4494
   373.92         9.3585
   374.06         9.2690
   374.20         9.1820
   374.34         9.1031
   374.48         9.0413
   374.62         9.0018
   374.76         8.9862
   374.90         8.9975
   375.04         9.0419
   375.18         9.1270
   375.32         9.2550
   375.46         9.4198
   375.60         9.6081
   375.74         9.8016
   375.88         9.9791
   376.02         10.1235
   376.16         10.2260
   376.30         10.2880
   376.44         10.3201
   376.58         10.3395
   376.72         10.3675
   376.86         10.4255
   377.00         10.5304
   377.14         10.6882
   377.28         10.8948
   377.42         11.1405
   377.56         11.4101
   377.70         11.6846
   377.84         11.9417
   377.98         12.1596
   378.12         12.3195
   378.26         12.4060
   378.40         12.4089
   378.54         12.3254
   378.68         12.1635
   378.82         11.9428
   378.96         11.6927
   379.10         11.4462
   379.24         11.2350
   379.38         11.0856
   379.52         11.0172
   379.66         11.0388
   379.80         11.1486
   379.94         11.3340
   380.08         11.5751
   380.22         11.8494
   380.36         12.1334
   380.50         12.4013
   380.64         12.6269
   380.78         12.7861
   380.92         12.8622
   381.06         12.8508
   381.20         12.7551
   381.34         12.5857
   381.48         12.3590
   381.62         12.0922
   381.76         11.7998
   381.90         11.4931
   382.04         11.1807
   382.18         10.8694
   382.32         10.5641
   382.46         10.2682
   382.60         9.9844
   382.74         9.7181
   382.88         9.4800
   383.02         9.2840
   383.16         9.1465
   383.30         9.0839
   383.44         9.1085
   383.58         9.2275
   383.72         9.4383
   383.86         9.7285
   384.00         10.0805
   384.14         10.4756
   384.28         10.8927
   384.42         11.3082
   384.56         11.6960
   384.70         12.0311
   384.84         12.2954
   384.98         12.4830
   385.12         12.5996
   385.26         12.6598
   385.40         12.6835
   385.54         12.6922
   385.68         12.7037
   385.82         12.7287
   385.96         12.7678
   386.10         12.8159
   386.24         12.8671
   386.38         12.9169
   386.52         12.9603
   386.66         12.9908
   386.80         13.0008
   386.94         12.9835
   387.08         12.9318
   387.22         12.8413
   387.36         12.7113
   387.50         12.5442
   387.64         12.3430
   387.78         12.1119
   387.92         11.8575
   388.06         11.5900
   388.20         11.3228
   388.34         11.0715
   388.48         10.8519
   388.62         10.6783
   388.76         10.5649
   388.90         10.5229
   389.04         10.5540
   389.18         10.6500
   389.32         10.7974
   389.46         10.9820
   389.60         11.1881
   389.74         11.3999
   389.88         11.6050
   390.02         11.7952
   390.16         11.9668
   390.30         12.1202
   390.44         12.2604
   390.58         12.3928
   390.72         12.5177
   390.86         12.6303
   391.00         12.7230
   391.14         12.7866
   391.28         12.8112
   391.42         12.7866
   391.56         12.6999
   391.70         12.5357
   391.84         12.2812
   391.98         11.9293
   392.12         11.4795
   392.26         10.9392
   392.40         10.3268
   392.54         9.6713
   392.68         9.0111
   392.82         8.3905
   392.96         7.8536
   393.10         7.4391
   393.24         7.1764
   393.38         7.0825
   393.52         7.1610
   393.66         7.4030
   393.80         7.7860
   393.94         8.2748
   394.08         8.8255
   394.22         9.3925
   394.36         9.9338
   394.50         10.4164
   394.64         10.8193
   394.78         11.1325
   394.92         11.3539
   395.06         11.4847
   395.20         11.5256
   395.34         11.4753
   395.48         11.3303
   395.62         11.0865
   395.76         10.7451
   395.90         10.3193
   396.04         9.8329
   396.18         9.3196
   396.32         8.8192
   396.46         8.3743
   396.60         8.0251
   396.74         7.8051
   396.88         7.7380
   397.02         7.8358
   397.16         8.0975
   397.30         8.5078
   397.44         9.0372
   397.58         9.6457
   397.72         10.2904
   397.86         10.9330
   398.00         11.5433
   398.14         12.1012
   398.28         12.5962
   398.42         13.0260
   398.56         13.3924
   398.70         13.6986
   398.84         13.9493
   398.98         14.1511
   399.12         14.3100
   399.26         14.4302
   399.40         14.5152
   399.54         14.5698
   399.68         14.5999
   399.82         14.6128
   399.96         14.6173
   400.10         14.6232
   400.24         14.6400
   400.38         14.6748
   400.52         14.7300
   400.66         14.8033
   400.80         14.8903
   400.94         14.9859
   401.08         15.0839
   401.22         15.1768
   401.36         15.2588
   401.50         15.3271
   401.64         15.3809
   401.78         15.4164
   401.92         15.4288
   402.06         15.4157
   402.20         15.3781
   402.34         15.3198
   402.48         15.2467
   402.62         15.1662
   402.76         15.0875
   402.90         15.0194
   403.04         14.9682
   403.18         14.9365
   403.32         14.9224
   403.46         14.9209
   403.60         14.9258
   403.74         14.9317
   403.88         14.9360
   404.02         14.9393
   404.16         14.9414
   404.30         14.9397
   404.44         14.9294
   404.58         14.9080
   404.72         14.8774
   404.86         14.8409
   405.00         14.8005
   405.14         14.7555
   405.28         14.7058
   405.42         14.6519
   405.56         14.5944
   405.70         14.5341
   405.84         14.4739
   405.98         14.4193
   406.12         14.3781
   406.26         14.3576
   406.40         14.3583
   406.54         14.3728
   406.68         14.3898
   406.82         14.4007
   406.96         14.4024
   407.10         14.3955
   407.24         14.3807
   407.38         14.3603
   407.52         14.3398
   407.66         14.3270
   407.80         14.3310
   407.94         14.3605
   408.08         14.4193
   408.22         14.5031
   408.36         14.6003
   408.50         14.6935
   408.64         14.7611
   408.78         14.7792
   408.92         14.7255
   409.06         14.5863
   409.20         14.3636
   409.34         14.0755
   409.48         13.7506
   409.62         13.4198
   409.76         13.1126
   409.90         12.8569
   410.04         12.6795
   410.18         12.6010
   410.32         12.6314
   410.46         12.7674
   410.60         12.9940
   410.74         13.2867
   410.88         13.6162
   411.02         13.9526
   411.16         14.2689
   411.30         14.5440
   411.44         14.7646
   411.58         14.9271
   411.72         15.0358
   411.86         15.0991
   412.00         15.1245
   412.14         15.1174
   412.28         15.0841
   412.42         15.0342
   412.56         14.9788
   412.70         14.9292
   412.84         14.8951
   412.98         14.8812
   413.12         14.8863
   413.26         14.9061
   413.40         14.9366
   413.54         14.9761
   413.68         15.0221
   413.82         15.0708
   413.96         15.1159
   414.10         15.1506
   414.24         15.1691
   414.38         15.1685
   414.52         15.1499
   414.66         15.1183
   414.80         15.0836
   414.94         15.0580
   415.08         15.0523
   415.22         15.0737
   415.36         15.1245
   415.50         15.2009
   415.64         15.2937
   415.78         15.3926
   415.92         15.4889
   416.06         15.5740
   416.20         15.6373
   416.34         15.6685
   416.48         15.6611
   416.62         15.6139
   416.76         15.5304
   416.90         15.4186
   417.04         15.2904
   417.18         15.1584
   417.32         15.0341
   417.46         14.9276
   417.60         14.8450
   417.74         14.7893
   417.88         14.7612
   418.02         14.7578
   418.16         14.7743
   418.30         14.8048
   418.44         14.8421
   418.58         14.8778
   418.72         14.9034
   418.86         14.9140
   419.00         14.9093
   419.14         14.8913
   419.28         14.8632
   419.42         14.8300
   419.56         14.7986
   419.70         14.7772
   419.84         14.7749
   419.98         14.8008
   420.12         14.8596
   420.26         14.9483
   420.40         15.0582
   420.54         15.1763
   420.68         15.2872
   420.82         15.3763
   420.96         15.4318
   421.10         15.4471
   421.24         15.4201
   421.38         15.3503
   421.52         15.2398
   421.66         15.0952
   421.80         14.9291
   421.94         14.7577
   422.08         14.5961
   422.22         14.4559
   422.36         14.3461
   422.50         14.2713
   422.64         14.2299
   422.78         14.2152
   422.92         14.2209
   423.06         14.2440
   423.20         14.2834
   423.34         14.3366
   423.48         14.3997
   423.62         14.4668
   423.76         14.5307
   423.90         14.5849
   424.04         14.6263
   424.18         14.6575
   424.32         14.6842
   424.46         14.7104
   424.60         14.7353
   424.74         14.7541
   424.88         14.7609
   425.02         14.7530
   425.16         14.7327
   425.30         14.7065
   425.44         14.6826
   425.58         14.6677
   425.72         14.6645
   425.86         14.6695
   426.00         14.6750
   426.14         14.6731
   426.28         14.6592
   426.42         14.6333
   426.56         14.6006
   426.70         14.5671
   426.84         14.5373
   426.98         14.5139
   427.12         14.4991
   427.26         14.4941
   427.40         14.4985
   427.54         14.5108
   427.68         14.5284
   427.82         14.5474
   427.96         14.5603
   428.10         14.5578
   428.24         14.5326
   428.38         14.4802
   428.52         14.3976
   428.66         14.2841
   428.80         14.1418
   428.94         13.9751
   429.08         13.7903
   429.22         13.5927
   429.36         13.3872
   429.50         13.1780
   429.64         12.9705
   429.78         12.7710
   429.92         12.5877
   430.06         12.4314
   430.20         12.3141
   430.34         12.2483
   430.48         12.2466
   430.62         12.3186
   430.76         12.4664
   430.90         12.6822
   431.04         12.9485
   431.18         13.2413
   431.32         13.5350
   431.46         13.8064
   431.60         14.0398
   431.74         14.2260
   431.88         14.3609
   432.02         14.4447
   432.16         14.4822
   432.30         14.4808
   432.44         14.4476
   432.58         14.3860
   432.72         14.2937
   432.86         14.1647
   433.00         13.9958
   433.14         13.7896
   433.28         13.5544
   433.42         13.3032
   433.56         13.0527
   433.70         12.8220
   433.84         12.6301
   433.98         12.4939
   434.12         12.4284
   434.26         12.4443
   434.40         12.5441
   434.54         12.7208
   434.68         12.9600
   434.82         13.2411
   434.96         13.5397
   435.10         13.8320
   435.24         14.1003
   435.38         14.3362
   435.52         14.5397
   435.66         14.7153
   435.80         14.8671
   435.94         14.9971
   436.08         15.1044
   436.22         15.1851
   436.36         15.2343
   436.50         15.2503
   436.64         15.2363
   436.78         15.2007
   436.92         15.1531
   437.06         15.0995
   437.20         15.0411
   437.34         14.9771
   437.48         14.9083
   437.62         14.8384
   437.76         14.7721
   437.90         14.7142
   438.04         14.6680
   438.18         14.6353
   438.32         14.6177
   438.46         14.6170
   438.60         14.6341
   438.74         14.6670
   438.88         14.7103
   439.02         14.7587
   439.16         14.8074
   439.30         14.8513
   439.44         14.8840
   439.58         14.9000
   439.72         14.8962
   439.86         14.8753
   440.00         14.8462
   440.14         14.8190
   440.28         14.8016
   440.42         14.7980
   440.56         14.8094
   440.70         14.8363
   440.84         14.8785
   440.98         14.9344
   441.12         15.0016
   441.26         15.0769
   441.40         15.1556
   441.54         15.2340
   441.68         15.3096
   441.82         15.3800
   441.96         15.4424
   442.10         15.4938
   442.24         15.5309
   442.38         15.5504
   442.52         15.5506
   442.66         15.5325
   442.80         15.5000
   442.94         15.4597
   443.08         15.4193
   443.22         15.3860
   443.36         15.3662
   443.50         15.3639
   443.64         15.3802
   443.78         15.4142
   443.92         15.4632
   444.06         15.5221
   444.20         15.5828
   444.34         15.6352
   444.48         15.6694
   444.62         15.6766
   444.76         15.6517
   444.90         15.5940
   445.04         15.5081
   445.18         15.4029
   445.32         15.2896
   445.46         15.1797
   445.60         15.0824
   445.74         15.0047
   445.88         14.9522
   446.02         14.9290
   446.16         14.9377
   446.30         14.9796
   446.44         15.0533
   446.58         15.1538
   446.72         15.2720
   446.86         15.3962
   447.00         15.5154
   447.14         15.6209
   447.28         15.7062
   447.42         15.7682
   447.56         15.8055
   447.70         15.8171
   447.84         15.8037
   447.98         15.7689
   448.12         15.7182
   448.26         15.6579
   448.40         15.5958
   448.54         15.5407
   448.68         15.5022
   448.82         15.4878
   448.96         15.5004
   449.10         15.5393
   449.24         15.6027
   449.38         15.6873
   449.52         15.7886
   449.66         15.9027
   449.80         16.0258
   449.94         16.1524
   450.08         16.2754
   450.22         16.3865
   450.36         16.4786
   450.50         16.5467
   450.64         16.5892
   450.78         16.6058
   450.92         16.5972
   451.06         16.5656
   451.20         16.5147
   451.34         16.4483
   451.48         16.3678
   451.62         16.2744
   451.76         16.1701
   451.90         16.0563
   452.04         15.9328
   452.18         15.7996
   452.32         15.6594
   452.46         15.5177
   452.60         15.3838
   452.74         15.2681
   452.88         15.1801
   453.02         15.1262
   453.16         15.1082
   453.30         15.1233
   453.44         15.1644
   453.58         15.2212
   453.72         15.2821
   453.86         15.3363
   454.00         15.3754
   454.14         15.3946
   454.28         15.3938
   454.42         15.3769
   454.56         15.3523
   454.70         15.3315
   454.84         15.3262
   454.98         15.3450
   455.12         15.3910
   455.26         15.4615
   455.40         15.5494
   455.54         15.6465
   455.68         15.7451
   455.82         15.8376
   455.96         15.9177
   456.10         15.9814
   456.24         16.0274
   456.38         16.0580
   456.52         16.0784
   456.66         16.0945
   456.80         16.1092
   456.94         16.1230
   457.08         16.1336
   457.22         16.1368
   457.36         16.1266
   457.50         16.0965
   457.64         16.0416
   457.78         15.9614
