# File HD1069
# Wavelength [nm]    Normalized Amplitude
   349.70         8.0149
   349.84         8.0188
   349.98         8.0523
   350.12         8.1066
   350.26         8.1710
   350.40         8.2351
   350.54         8.2932
   350.68         8.3429
   350.82         8.3819
   350.96         8.4067
   351.10         8.4151
   351.24         8.4067
   351.38         8.3819
   351.52         8.3429
   351.66         8.2932
   351.80         8.2351
   351.94         8.1710
   352.08         8.1066
   352.22         8.0523
   352.36         8.0188
   352.50         8.0149
   352.64         8.0472
   352.78         8.1192
   352.92         8.2312
   353.06         8.3796
   353.20         8.5560
   353.34         8.7469
   353.48         8.9357
   353.62         9.1058
   353.76         9.2430
   353.90         9.3372
   354.04         9.3820
   354.18         9.3735
   354.32         9.3110
   354.46         9.1977
   354.60         9.0405
   354.74         8.8496
   354.88         8.6368
   355.02         8.4126
   355.16         8.1846
   355.30         7.9566
   355.44         7.7295
   355.58         7.5042
   355.72         7.2816
   355.86         7.0628
   356.00         6.8517
   356.14         6.6544
   356.28         6.4766
   356.42         6.3219
   356.56         6.1903
   356.70         6.0772
   356.84         5.9756
   356.98         5.8776
   357.12         5.7761
   357.26         5.6673
   357.40         5.5507
   357.54         5.4261
   357.68         5.2959
   357.82         5.1712
   357.96         5.0700
   358.10         5.0119
   358.24         5.0155
   358.38         5.0958
   358.52         5.2655
   358.66         5.5335
   358.80         5.8988
   358.94         6.3449
   359.08         6.8425
   359.22         7.3538
   359.36         7.8386
   359.50         8.2599
   359.64         8.5877
   359.78         8.8045
   359.92         8.9075
   360.06         8.9077
   360.20         8.8291
   360.34         8.7042
   360.48         8.5638
   360.62         8.4279
   360.76         8.3096
   360.90         8.2210
   361.04         8.1774
   361.18         8.1973
   361.32         8.2982
   361.46         8.4884
   361.60         8.7618
   361.74         9.0971
   361.88         9.4630
   362.02         9.8277
   362.16         10.1653
   362.30         10.4580
   362.44         10.6997
   362.58         10.8943
   362.72         11.0489
   362.86         11.1694
   363.00         11.2584
   363.14         11.3147
   363.28         11.3396
   363.42         11.3413
   363.56         11.3336
   363.70         11.3300
   363.84         11.3381
   363.98         11.3569
   364.12         11.3786
   364.26         11.3978
   364.40         11.4199
   364.54         11.4638
   364.68         11.5594
   364.82         11.7372
   364.96         12.0160
   365.10         12.3954
   365.24         12.8556
   365.38         13.3593
   365.52         13.8595
   365.66         14.3089
   365.80         14.6682
   365.94         14.9145
   366.08         15.0416
   366.22         15.0561
   366.36         14.9741
   366.50         14.8170
   366.64         14.6082
   366.78         14.3705
   366.92         14.1256
   367.06         13.8919
   367.20         13.6812
   367.34         13.4944
   367.48         13.3207
   367.62         13.1462
   367.76         12.9660
   367.90         12.7883
   368.04         12.6264
   368.18         12.4952
   368.32         12.4103
   368.46         12.3846
   368.60         12.4289
   368.74         12.5489
   368.88         12.7431
   369.02         12.9983
   369.16         13.2852
   369.30         13.5624
   369.44         13.7867
   369.58         13.9209
   369.72         13.9395
   369.86         13.8342
   370.00         13.6194
   370.14         13.3323
   370.28         13.0223
   370.42         12.7331
   370.56         12.4898
   370.70         12.2960
   370.84         12.1405
   370.98         12.0059
   371.12         11.8766
   371.26         11.7436
   371.40         11.6002
   371.54         11.4376
   371.68         11.2446
   371.82         11.0131
   371.96         10.7439
   372.10         10.4477
   372.24         10.1382
   372.38         9.8279
   372.52         9.5293
   372.66         9.2529
   372.80         9.0022
   372.94         8.7730
   373.08         8.5567
   373.22         8.3457
   373.36         8.1370
   373.50         7.9335
   373.64         7.7429
   373.78         7.5761
   373.92         7.4447
   374.06         7.3596
   374.20         7.3300
   374.34         7.3622
   374.48         7.4560
   374.62         7.6022
   374.76         7.7886
   374.90         8.0045
   375.04         8.2420
   375.18         8.4930
   375.32         8.7419
   375.46         8.9657
   375.60         9.1440
   375.74         9.2678
   375.88         9.3438
   376.02         9.3914
   376.16         9.4370
   376.30         9.5091
   376.44         9.6349
   376.58         9.8388
   376.72         10.1343
   376.86         10.5171
   377.00         10.9664
   377.14         11.4486
   377.28         11.9235
   377.42         12.3509
   377.56         12.6926
   377.70         12.9150
   377.84         12.9988
   377.98         12.9417
   378.12         12.7558
   378.26         12.4635
   378.40         12.0907
   378.54         11.6607
   378.68         11.1959
   378.82         10.7229
   378.96         10.2733
   379.10         9.8823
   379.24         9.5820
   379.38         9.3905
   379.52         9.3086
   379.66         9.3242
   379.80         9.4155
   379.94         9.5539
   380.08         9.7094
   380.22         9.8517
   380.36         9.9529
   380.50         9.9914
   380.64         9.9497
   380.78         9.8147
   380.92         9.5846
   381.06         9.2705
   381.20         8.8917
   381.34         8.4717
   381.48         8.0361
   381.62         7.6101
   381.76         7.2166
   381.90         6.8720
   382.04         6.5855
   382.18         6.3626
   382.32         6.2059
   382.46         6.1110
   382.60         6.0652
   382.74         6.0528
   382.88         6.0613
   383.02         6.0871
   383.16         6.1342
   383.30         6.2069
   383.44         6.3057
   383.58         6.4296
   383.72         6.5759
   383.86         6.7370
   384.00         6.9027
   384.14         7.0642
   384.28         7.2134
   384.42         7.3395
   384.56         7.4299
   384.70         7.4739
   384.84         7.4666
   384.98         7.4095
   385.12         7.3080
   385.26         7.1720
   385.40         7.0181
   385.54         6.8658
   385.68         6.7299
   385.82         6.6176
   385.96         6.5306
   386.10         6.4710
   386.24         6.4444
   386.38         6.4558
   386.52         6.5052
   386.66         6.5888
   386.80         6.7006
   386.94         6.8341
   387.08         6.9852
   387.22         7.1532
   387.36         7.3373
   387.50         7.5363
   387.64         7.7511
   387.78         7.9873
   387.92         8.2549
   388.06         8.5657
   388.20         8.9261
   388.34         9.3356
   388.48         9.7896
   388.62         10.2810
   388.76         10.7979
   388.90         11.3204
   389.04         11.8213
   389.18         12.2739
   389.32         12.6572
   389.46         12.9595
   389.60         13.1803
   389.74         13.3315
   389.88         13.4319
   390.02         13.5032
   390.16         13.5682
   390.30         13.6454
   390.44         13.7432
   390.58         13.8562
   390.72         13.9642
   390.86         14.0380
   391.00         14.0498
   391.14         13.9787
   391.28         13.8127
   391.42         13.5452
   391.56         13.1730
   391.70         12.6984
   391.84         12.1304
   391.98         11.4831
   392.12         10.7749
   392.26         10.0296
   392.40         9.2746
   392.54         8.5387
   392.68         7.8510
   392.82         7.2399
   392.96         6.7317
   393.10         6.3504
   393.24         6.1162
   393.38         6.0448
   393.52         6.1469
   393.66         6.4261
   393.80         6.8766
   393.94         7.4793
   394.08         8.2020
   394.22         9.0056
   394.36         9.8488
   394.50         10.6901
   394.64         11.4890
   394.78         12.2098
   394.92         12.8214
   395.06         13.2942
   395.20         13.6001
   395.34         13.7148
   395.48         13.6213
   395.62         13.3149
   395.76         12.8098
   395.90         12.1407
   396.04         11.3604
   396.18         10.5341
   396.32         9.7377
   396.46         9.0510
   396.60         8.5479
   396.74         8.2870
   396.88         8.3048
   397.02         8.6108
   397.16         9.1883
   397.30         10.0006
   397.44         10.9977
   397.58         12.1187
   397.72         13.2978
   397.86         14.4742
   398.00         15.5993
   398.14         16.6393
   398.28         17.5739
   398.42         18.3948
   398.56         19.1055
   398.70         19.7203
   398.84         20.2616
   398.98         20.7535
   399.12         21.2147
   399.26         21.6514
   399.40         22.0571
   399.54         22.4236
   399.68         22.7494
   399.82         23.0398
   399.96         23.3019
   400.10         23.5427
   400.24         23.7695
   400.38         23.9900
   400.52         24.2118
   400.66         24.4409
   400.80         24.6780
   400.94         24.9191
   401.08         25.1601
   401.22         25.3973
   401.36         25.6284
   401.50         25.8507
   401.64         26.0576
   401.78         26.2337
   401.92         26.3542
   402.06         26.3939
   402.20         26.3393
   402.34         26.1900
   402.48         25.9575
   402.62         25.6670
   402.76         25.3545
   402.90         25.0546
   403.04         24.7906
   403.18         24.5686
   403.32         24.3760
   403.46         24.1943
   403.60         24.0163
   403.74         23.8486
   403.88         23.7044
   404.02         23.5944
   404.16         23.5190
   404.30         23.4650
   404.44         23.4125
   404.58         23.3481
   404.72         23.2747
   404.86         23.2075
   405.00         23.1570
   405.14         23.1197
   405.28         23.0814
   405.42         23.0231
   405.56         22.9298
   405.70         22.7992
   405.84         22.6393
   405.98         22.4676
   406.12         22.3163
   406.26         22.2202
   406.40         22.1951
   406.54         22.2314
   406.68         22.3061
   406.82         22.4009
   406.96         22.5107
   407.10         22.6410
   407.24         22.8007
   407.38         22.9979
   407.52         23.2382
   407.66         23.5273
   407.80         23.8731
   407.94         24.2839
   408.08         24.7606
   408.22         25.2896
   408.36         25.8405
   408.50         26.3683
   408.64         26.8264
   408.78         27.1750
   408.92         27.3813
   409.06         27.4265
   409.20         27.3165
   409.34         27.0853
   409.48         26.7828
   409.62         26.4557
   409.76         26.1378
   409.90         25.8513
   410.04         25.6140
   410.18         25.4424
   410.32         25.3456
   410.46         25.3184
   410.60         25.3426
   410.74         25.3929
   410.88         25.4428
   411.02         25.4688
   411.16         25.4540
   411.30         25.3909
   411.44         25.2805
   411.58         25.1313
   411.72         24.9570
   411.86         24.7683
   412.00         24.5661
   412.14         24.3427
   412.28         24.0914
   412.42         23.8130
   412.56         23.5197
   412.70         23.2335
   412.84         22.9753
   412.98         22.7517
   413.12         22.5533
   413.26         22.3633
   413.40         22.1714
   413.54         21.9784
   413.68         21.7875
   413.82         21.5986
   413.96         21.4072
   414.10         21.2076
   414.24         20.9971
   414.38         20.7785
   414.52         20.5639
   414.66         20.3762
   414.80         20.2461
   414.94         20.2041
   415.08         20.2707
   415.22         20.4496
   415.36         20.7243
   415.50         21.0601
   415.64         21.4169
   415.78         21.7627
   415.92         22.0752
   416.06         22.3366
   416.20         22.5280
   416.34         22.6291
   416.48         22.6263
   416.62         22.5181
   416.76         22.3185
   416.90         22.0553
   417.04         21.7655
   417.18         21.4912
   417.32         21.2740
   417.46         21.1447
   417.60         21.1186
   417.74         21.1966
   417.88         21.3688
   418.02         21.6196
   418.16         21.9304
   418.30         22.2767
   418.44         22.6235
   418.58         22.9291
   418.72         23.1564
   418.86         23.2815
   419.00         23.2956
   419.14         23.2062
   419.28         23.0378
   419.42         22.8307
   419.56         22.6358
   419.70         22.5028
   419.84         22.4690
   419.98         22.5518
   420.12         22.7451
   420.26         23.0247
   420.40         23.3626
   420.54         23.7402
   420.68         24.1517
   420.82         24.5966
   420.96         25.0700
   421.10         25.5555
   421.24         26.0235
   421.38         26.4308
   421.52         26.7332
   421.66         26.9070
   421.80         26.9598
   421.94         26.9220
   422.08         26.8304
   422.22         26.7163
   422.36         26.6006
   422.50         26.4979
   422.64         26.4268
   422.78         26.4122
   422.92         26.4840
   423.06         26.6760
   423.20         27.0138
   423.34         27.4968
   423.48         28.0900
   423.62         28.7290
   423.76         29.3367
   423.90         29.8452
   424.04         30.2146
   424.18         30.4393
   424.32         30.5373
   424.46         30.5316
   424.60         30.4366
   424.74         30.2566
   424.88         29.9985
   425.02         29.6843
   425.16         29.3592
   425.30         29.0847
   425.44         28.9207
   425.58         28.9057
   425.72         29.0431
   425.86         29.2963
   426.00         29.5972
   426.14         29.8659
   426.28         30.0346
   426.42         30.0667
   426.56         29.9644
   426.70         29.7586
   426.84         29.4907
   426.98         29.2011
   427.12         28.9269
   427.26         28.6990
   427.40         28.5401
   427.54         28.4690
   427.68         28.4953
   427.82         28.6074
   427.96         28.7696
   428.10         28.9315
   428.24         29.0402
   428.38         29.0515
   428.52         28.9411
   428.66         28.7074
   428.80         28.3642
   428.94         27.9329
   429.08         27.4372
   429.22         26.8948
   429.36         26.3133
   429.50         25.6919
   429.64         25.0306
   429.78         24.3405
   429.92         23.6470
   430.06         22.9919
   430.20         22.4351
   430.34         22.0493
   430.48         21.9164
   430.62         22.1182
   430.76         22.7101
   430.90         23.6979
   431.04         25.0302
   431.18         26.6032
   431.32         28.2763
   431.46         29.9063
   431.60         31.3822
   431.74         32.6363
   431.88         33.6359
   432.02         34.3779
   432.16         34.8896
   432.30         35.2258
   432.44         35.4549
   432.58         35.6374
   432.72         35.8137
   432.86         36.0037
   433.00         36.2120
   433.14         36.4325
   433.28         36.6474
   433.42         36.8318
   433.56         36.9683
   433.70         37.0546
   433.84         37.0996
   433.98         37.1210
   434.12         37.1469
   434.26         37.2107
   434.40         37.3374
   434.54         37.5318
   434.68         37.7806
   434.82         38.0599
   434.96         38.3422
   435.10         38.6066
   435.24         38.8461
   435.38         39.0756
   435.52         39.3200
   435.66         39.5965
   435.80         39.9086
   435.94         40.2429
   436.08         40.5689
   436.22         40.8411
   436.36         41.0091
   436.50         41.0349
   436.64         40.9113
   436.78         40.6645
   436.92         40.3290
   437.06         39.9197
   437.20         39.4280
   437.34         38.8415
   437.48         38.1645
   437.62         37.4234
   437.76         36.6544
   437.90         35.8936
   438.04         35.1762
   438.18         34.5355
   438.32         34.0100
   438.46         33.6463
   438.60         33.4862
   438.74         33.5508
   438.88         33.8366
   439.02         34.3195
   439.16         34.9485
   439.30         35.6396
   439.44         36.2864
   439.58         36.7871
   439.72         37.0782
   439.86         37.1575
   440.00         37.0768
   440.14         36.9111
   440.28         36.7267
   440.42         36.5683
   440.56         36.4728
   440.70         36.4762
   440.84         36.6049
   440.98         36.8661
   441.12         37.2441
   441.26         37.7030
   441.40         38.1941
   441.54         38.6659
   441.68         39.0718
   441.82         39.3746
   441.96         39.5556
   442.10         39.6216
   442.24         39.5929
   442.38         39.4936
   442.52         39.3526
   442.66         39.1998
   442.80         39.0566
   442.94         38.9343
   443.08         38.8425
   443.22         38.8004
   443.36         38.8320
   443.50         38.9538
   443.64         39.1728
   443.78         39.4889
   443.92         39.8959
   444.06         40.3752
   444.20         40.8925
   444.34         41.4020
   444.48         41.8543
   444.62         42.2059
   444.76         42.4212
   444.90         42.4762
   445.04         42.3682
   445.18         42.1184
   445.32         41.7594
   445.46         41.3259
   445.60         40.8560
   445.74         40.3960
   445.88         40.0015
   446.02         39.7258
   446.16         39.6091
   446.30         39.6781
   446.44         39.9440
   446.58         40.3977
   446.72         41.0065
   446.86         41.7161
   447.00         42.4632
   447.14         43.1958
   447.28         43.8804
   447.42         44.4981
   447.56         45.0390
   447.70         45.4932
   447.84         45.8484
   447.98         46.0957
   448.12         46.2320
   448.26         46.2536
   448.40         46.1621
   448.54         45.9784
   448.68         45.7425
   448.82         45.4998
   448.96         45.2912
   449.10         45.1533
   449.24         45.1208
   449.38         45.2247
   449.52         45.4873
   449.66         45.9234
   449.80         46.5379
   449.94         47.3106
   450.08         48.1872
   450.22         49.0848
   450.36         49.9136
   450.50         50.6027
   450.64         51.1090
   450.78         51.4143
   450.92         51.5228
   451.06         51.4597
   451.20         51.2611
   451.34         50.9573
   451.48         50.5640
   451.62         50.0855
   451.76         49.5240
   451.90         48.8829
   452.04         48.1667
   452.18         47.3845
   452.32         46.5562
   452.46         45.7185
   452.60         44.9218
   452.74         44.2190
   452.88         43.6562
   453.02         43.2752
   453.16         43.1097
   453.30         43.1723
   453.44         43.4490
   453.58         43.8984
   453.72         44.4583
   453.86         45.0590
   454.00         45.6348
   454.14         46.1328
   454.28         46.5229
   454.42         46.8061
   454.56         47.0109
   454.70         47.1744
   454.84         47.3311
   454.98         47.5089
   455.12         47.7258
   455.26         47.9812
   455.40         48.2594
   455.54         48.5471
   455.68         48.8435
   455.82         49.1463
   455.96         49.4421
   456.10         49.7174
   456.24         49.9654
   456.38         50.1825
   456.52         50.3629
   456.66         50.4965
   456.80         50.5718
   456.94         50.5815
   457.08         50.5266
   457.22         50.4116
   457.36         50.2411
   457.50         50.0275
   457.64         49.7981
   457.78         49.5894
   457.92         49.4352
   458.06         49.3582
