# File HD116608
# Wavelength [nm]    Normalized Amplitude
   349.70         7.9880
   349.84         8.0213
   349.98         8.0620
   350.12         8.1064
   350.26         8.1516
   350.40         8.1951
   350.54         8.2342
   350.68         8.2660
   350.82         8.2886
   350.96         8.3020
   351.10         8.3064
   351.24         8.3020
   351.38         8.2886
   351.52         8.2660
   351.66         8.2342
   351.80         8.1951
   351.94         8.1516
   352.08         8.1064
   352.22         8.0620
   352.36         8.0213
   352.50         7.9880
   352.64         7.9657
   352.78         7.9572
   352.92         7.9630
   353.06         7.9818
   353.20         8.0124
   353.34         8.0540
   353.48         8.1044
   353.62         8.1592
   353.76         8.2137
   353.90         8.2644
   354.04         8.3096
   354.18         8.3495
   354.32         8.3843
   354.46         8.4133
   354.60         8.4351
   354.74         8.4485
   354.88         8.4546
   355.02         8.4542
   355.16         8.4472
   355.30         8.4326
   355.44         8.4105
   355.58         8.3816
   355.72         8.3473
   355.86         8.3086
   356.00         8.2649
   356.14         8.2156
   356.28         8.1619
   356.42         8.1077
   356.56         8.0576
   356.70         8.0157
   356.84         7.9850
   356.98         7.9662
   357.12         7.9586
   357.26         7.9601
   357.40         7.9679
   357.54         7.9782
   357.68         7.9876
   357.82         7.9949
   357.96         8.0002
   358.10         8.0042
   358.24         8.0085
   358.38         8.0146
   358.52         8.0233
   358.66         8.0352
   358.80         8.0517
   358.94         8.0731
   359.08         8.0972
   359.22         8.1210
   359.36         8.1408
   359.50         8.1522
   359.64         8.1509
   359.78         8.1344
   359.92         8.1033
   360.06         8.0611
   360.20         8.0147
   360.34         7.9715
   360.48         7.9365
   360.62         7.9128
   360.76         7.9026
   360.90         7.9060
   361.04         7.9203
   361.18         7.9414
   361.32         7.9668
   361.46         7.9959
   361.60         8.0281
   361.74         8.0615
   361.88         8.0931
   362.02         8.1181
   362.16         8.1336
   362.30         8.1401
   362.44         8.1411
   362.58         8.1404
   362.72         8.1410
   362.86         8.1441
   363.00         8.1484
   363.14         8.1518
   363.28         8.1534
   363.42         8.1529
   363.56         8.1497
   363.70         8.1445
   363.84         8.1392
   363.98         8.1362
   364.12         8.1365
   364.26         8.1404
   364.40         8.1479
   364.54         8.1588
   364.68         8.1750
   364.82         8.1992
   364.96         8.2313
   365.10         8.2681
   365.24         8.3046
   365.38         8.3360
   365.52         8.3587
   365.66         8.3711
   365.80         8.3734
   365.94         8.3673
   366.08         8.3554
   366.22         8.3408
   366.36         8.3262
   366.50         8.3141
   366.64         8.3067
   366.78         8.3041
   366.92         8.3050
   367.06         8.3064
   367.20         8.3056
   367.34         8.3005
   367.48         8.2893
   367.62         8.2714
   367.76         8.2484
   367.90         8.2234
   368.04         8.1994
   368.18         8.1805
   368.32         8.1719
   368.46         8.1747
   368.60         8.1858
   368.74         8.1998
   368.88         8.2122
   369.02         8.2204
   369.16         8.2224
   369.30         8.2157
   369.44         8.1982
   369.58         8.1705
   369.72         8.1351
   369.86         8.0942
   370.00         8.0494
   370.14         8.0040
   370.28         7.9627
   370.42         7.9308
   370.56         7.9136
   370.70         7.9161
   370.84         7.9388
   370.98         7.9762
   371.12         8.0195
   371.26         8.0635
   371.40         8.1095
   371.54         8.1626
   371.68         8.2274
   371.82         8.3056
   371.96         8.3947
   372.10         8.4880
   372.24         8.5748
   372.38         8.6442
   372.52         8.6895
   372.66         8.7120
   372.80         8.7202
   372.94         8.7253
   373.08         8.7392
   373.22         8.7712
   373.36         8.8238
   373.50         8.8930
   373.64         8.9703
   373.78         9.0456
   373.92         9.1089
   374.06         9.1524
   374.20         9.1720
   374.34         9.1681
   374.48         9.1457
   374.62         9.1138
   374.76         9.0856
   374.90         9.0797
   375.04         9.1155
   375.18         9.2066
   375.32         9.3568
   375.46         9.5566
   375.60         9.7837
   375.74         10.0053
   375.88         10.1845
   376.02         10.2886
   376.16         10.2986
   376.30         10.2154
   376.44         10.0601
   376.58         9.8694
   376.72         9.6889
   376.86         9.5633
   377.00         9.5294
   377.14         9.6102
   377.28         9.8134
   377.42         10.1330
   377.56         10.5501
   377.70         11.0325
   377.84         11.5396
   377.98         12.0274
   378.12         12.4512
   378.26         12.7696
   378.40         12.9495
   378.54         12.9717
   378.68         12.8332
   378.82         12.5500
   378.96         12.1544
   379.10         11.6891
   379.24         11.2031
   379.38         10.7476
   379.52         10.3709
   379.66         10.1131
   379.80         10.0043
   379.94         10.0619
   380.08         10.2865
   380.22         10.6627
   380.36         11.1631
   380.50         11.7520
   380.64         12.3863
   380.78         13.0200
   380.92         13.6106
   381.06         14.1240
   381.20         14.5385
   381.34         14.8447
   381.48         15.0411
   381.62         15.1298
   381.76         15.1142
   381.90         14.9969
   382.04         14.7781
   382.18         14.4571
   382.32         14.0348
   382.46         13.5177
   382.60         12.9203
   382.74         12.2686
   382.88         11.6007
   383.02         10.9630
   383.16         10.4025
   383.30         9.9614
   383.44         9.6744
   383.58         9.5654
   383.72         9.6461
   383.86         9.9134
   384.00         10.3495
   384.14         10.9243
   384.28         11.6004
   384.42         12.3360
   384.56         13.0889
   384.70         13.8215
   384.84         14.5061
   384.98         15.1277
   385.12         15.6822
   385.26         16.1721
   385.40         16.6031
   385.54         16.9819
   385.68         17.3130
   385.82         17.5973
   385.96         17.8314
   386.10         18.0098
   386.24         18.1280
   386.38         18.1825
   386.52         18.1700
   386.66         18.0864
   386.80         17.9286
   386.94         17.6949
   387.08         17.3860
   387.22         17.0030
   387.36         16.5470
   387.50         16.0187
   387.64         15.4193
   387.78         14.7531
   387.92         14.0322
   388.06         13.2799
   388.20         12.5278
   388.34         11.8121
   388.48         11.1703
   388.62         10.6394
   388.76         10.2545
   388.90         10.0432
   389.04         10.0199
   389.18         10.1841
   389.32         10.5210
   389.46         11.0056
   389.60         11.6075
   389.74         12.2932
   389.88         13.0253
   390.02         13.7671
   390.16         14.4893
   390.30         15.1717
   390.44         15.8017
   390.58         16.3723
   390.72         16.8818
   390.86         17.3319
   391.00         17.7253
   391.14         18.0675
   391.28         18.3665
   391.42         18.6271
   391.56         18.8500
   391.70         19.0339
   391.84         19.1730
   391.98         19.2557
   392.12         19.2672
   392.26         19.1978
   392.40         19.0484
   392.54         18.8310
   392.68         18.5691
   392.82         18.2919
   392.96         18.0270
   393.10         17.7992
   393.24         17.6292
   393.38         17.5337
   393.52         17.5188
   393.66         17.5788
   393.80         17.6995
   393.94         17.8578
   394.08         18.0240
   394.22         18.1670
   394.36         18.2594
   394.50         18.2774
   394.64         18.2068
   394.78         18.0477
   394.92         17.8106
   395.06         17.5081
   395.20         17.1462
   395.34         16.7235
   395.48         16.2325
   395.62         15.6632
   395.76         15.0111
   395.90         14.2827
   396.04         13.4976
   396.18         12.6872
   396.32         11.8927
   396.46         11.1600
   396.60         10.5340
   396.74         10.0544
   396.88         9.7529
   397.02         9.6480
   397.16         9.7426
   397.30         10.0254
   397.44         10.4744
   397.58         11.0581
   397.72         11.7387
   397.86         12.4765
   398.00         13.2321
   398.14         13.9712
   398.28         14.6683
   398.42         15.3099
   398.56         15.8932
   398.70         16.4198
   398.84         16.8928
   398.98         17.3148
   399.12         17.6879
   399.26         18.0138
   399.40         18.2957
   399.54         18.5403
   399.68         18.7550
   399.82         18.9455
   399.96         19.1170
   400.10         19.2744
   400.24         19.4216
   400.38         19.5618
   400.52         19.6969
   400.66         19.8275
   400.80         19.9527
   400.94         20.0724
   401.08         20.1857
   401.22         20.2903
   401.36         20.3834
   401.50         20.4614
   401.64         20.5214
   401.78         20.5616
   401.92         20.5806
   402.06         20.5788
   402.20         20.5583
   402.34         20.5215
   402.48         20.4725
   402.62         20.4197
   402.76         20.3734
   402.90         20.3408
   403.04         20.3237
   403.18         20.3205
   403.32         20.3271
   403.46         20.3397
   403.60         20.3547
   403.74         20.3675
   403.88         20.3761
   404.02         20.3793
   404.16         20.3756
   404.30         20.3625
   404.44         20.3371
   404.58         20.2991
   404.72         20.2535
   404.86         20.2075
   405.00         20.1643
   405.14         20.1212
   405.28         20.0725
   405.42         20.0140
   405.56         19.9406
   405.70         19.8483
   405.84         19.7375
   405.98         19.6113
   406.12         19.4733
   406.26         19.3238
   406.40         19.1597
   406.54         18.9783
   406.68         18.7776
   406.82         18.5581
   406.96         18.3228
   407.10         18.0783
   407.24         17.8332
   407.38         17.5925
   407.52         17.3557
   407.66         17.1205
   407.80         16.8853
   407.94         16.6477
   408.08         16.4022
   408.22         16.1400
   408.36         15.8512
   408.50         15.5256
   408.64         15.1503
   408.78         14.7107
   408.92         14.1956
   409.06         13.6049
   409.20         12.9523
   409.34         12.2624
   409.48         11.5684
   409.62         10.9091
   409.76         10.3250
   409.90         9.8539
   410.04         9.5258
   410.18         9.3630
   410.32         9.3772
   410.46         9.5652
   410.60         9.9108
   410.74         10.3894
   410.88         10.9701
   411.02         11.6149
   411.16         12.2832
   411.30         12.9391
   411.44         13.5555
   411.58         14.1145
   411.72         14.6084
   411.86         15.0375
   412.00         15.4069
   412.14         15.7247
   412.28         16.0006
   412.42         16.2451
   412.56         16.4668
   412.70         16.6742
   412.84         16.8764
   412.98         17.0791
   413.12         17.2813
   413.26         17.4798
   413.40         17.6709
   413.54         17.8511
   413.68         18.0161
   413.82         18.1632
   413.96         18.2918
   414.10         18.4011
   414.24         18.4916
   414.38         18.5649
   414.52         18.6215
   414.66         18.6619
   414.80         18.6881
   414.94         18.7028
   415.08         18.7088
   415.22         18.7085
   415.36         18.7049
   415.50         18.7006
   415.64         18.6959
   415.78         18.6904
   415.92         18.6838
   416.06         18.6763
   416.20         18.6676
   416.34         18.6559
   416.48         18.6384
   416.62         18.6120
   416.76         18.5741
   416.90         18.5245
   417.04         18.4643
   417.18         18.3965
   417.32         18.3275
   417.46         18.2654
   417.60         18.2149
   417.74         18.1777
   417.88         18.1561
   418.02         18.1527
   418.16         18.1689
   418.30         18.2028
   418.44         18.2489
   418.58         18.3001
   418.72         18.3504
   418.86         18.3942
   419.00         18.4251
   419.14         18.4386
   419.28         18.4337
   419.42         18.4128
   419.56         18.3818
   419.70         18.3479
   419.84         18.3191
   419.98         18.3022
   420.12         18.3009
   420.26         18.3155
   420.40         18.3453
   420.54         18.3872
   420.68         18.4342
   420.82         18.4770
   420.96         18.5065
   421.10         18.5147
   421.24         18.4967
   421.38         18.4524
   421.52         18.3843
   421.66         18.2977
   421.80         18.2018
   421.94         18.1067
   422.08         18.0208
   422.22         17.9499
   422.36         17.8958
   422.50         17.8584
   422.64         17.8368
   422.78         17.8301
   422.92         17.8370
   423.06         17.8559
   423.20         17.8859
   423.34         17.9252
   423.48         17.9688
   423.62         18.0092
   423.76         18.0383
   423.90         18.0498
   424.04         18.0411
   424.18         18.0122
   424.32         17.9666
   424.46         17.9091
   424.60         17.8443
   424.74         17.7766
   424.88         17.7101
   425.02         17.6483
   425.16         17.5955
   425.30         17.5559
   425.44         17.5332
   425.58         17.5284
   425.72         17.5402
   425.86         17.5632
   426.00         17.5883
   426.14         17.6060
   426.28         17.6104
   426.42         17.5989
   426.56         17.5738
   426.70         17.5405
   426.84         17.5047
   426.98         17.4703
   427.12         17.4391
   427.26         17.4117
   427.40         17.3884
   427.54         17.3691
   427.68         17.3535
   427.82         17.3418
   427.96         17.3321
   428.10         17.3208
   428.24         17.3030
   428.38         17.2743
   428.52         17.2313
   428.66         17.1712
   428.80         17.0938
   428.94         17.0019
   429.08         16.8998
   429.22         16.7920
   429.36         16.6820
   429.50         16.5709
   429.64         16.4586
   429.78         16.3465
   429.92         16.2388
   430.06         16.1408
   430.20         16.0540
   430.34         15.9767
   430.48         15.9067
   430.62         15.8415
   430.76         15.7791
   430.90         15.7156
   431.04         15.6452
   431.18         15.5613
   431.32         15.4594
   431.46         15.3375
   431.60         15.1942
   431.74         15.0289
   431.88         14.8416
   432.02         14.6307
   432.16         14.3934
   432.30         14.1264
   432.44         13.8254
   432.58         13.4834
   432.72         13.0913
   432.86         12.6413
   433.00         12.1327
   433.14         11.5757
   433.28         10.9903
   433.42         10.4034
   433.56         9.8457
   433.70         9.3494
   433.84         8.9452
   433.98         8.6578
   434.12         8.5031
   434.26         8.4898
   434.40         8.6198
   434.54         8.8839
   434.68         9.2618
   434.82         9.7262
   434.96         10.2463
   435.10         10.7915
   435.24         11.3355
   435.38         11.8589
   435.52         12.3515
   435.66         12.8101
   435.80         13.2350
   435.94         13.6276
   436.08         13.9888
   436.22         14.3177
   436.36         14.6119
   436.50         14.8701
   436.64         15.0943
   436.78         15.2896
   436.92         15.4623
   437.06         15.6146
   437.20         15.7434
   437.34         15.8469
   437.48         15.9269
   437.62         15.9872
   437.76         16.0323
   437.90         16.0664
   438.04         16.0939
   438.18         16.1188
   438.32         16.1429
   438.46         16.1665
   438.60         16.1908
   438.74         16.2179
   438.88         16.2479
   439.02         16.2790
   439.16         16.3100
   439.30         16.3393
   439.44         16.3633
   439.58         16.3769
   439.72         16.3780
   439.86         16.3703
   440.00         16.3615
   440.14         16.3585
   440.28         16.3642
   440.42         16.3768
   440.56         16.3939
   440.70         16.4142
   440.84         16.4378
   440.98         16.4648
   441.12         16.4945
   441.26         16.5270
   441.40         16.5617
   441.54         16.5965
   441.68         16.6300
   441.82         16.6624
   441.96         16.6916
   442.10         16.7137
   442.24         16.7260
   442.38         16.7292
   442.52         16.7249
   442.66         16.7135
   442.80         16.6944
   442.94         16.6672
   443.08         16.6334
   443.22         16.5967
   443.36         16.5614
   443.50         16.5306
   443.64         16.5041
   443.78         16.4806
   443.92         16.4607
   444.06         16.4443
   444.20         16.4289
   444.34         16.4118
   444.48         16.3912
   444.62         16.3651
   444.76         16.3322
   444.90         16.2956
   445.04         16.2590
   445.18         16.2238
   445.32         16.1886
   445.46         16.1509
   445.60         16.1081
   445.74         16.0585
   445.88         16.0022
   446.02         15.9437
   446.16         15.8886
   446.30         15.8411
   446.44         15.8045
   446.58         15.7804
   446.72         15.7674
   446.86         15.7612
   447.00         15.7571
   447.14         15.7525
   447.28         15.7466
   447.42         15.7416
   447.56         15.7399
   447.70         15.7408
   447.84         15.7431
   447.98         15.7461
   448.12         15.7495
   448.26         15.7546
   448.40         15.7640
   448.54         15.7814
   448.68         15.8080
   448.82         15.8405
   448.96         15.8741
   449.10         15.9059
   449.24         15.9338
   449.38         15.9557
   449.52         15.9710
   449.66         15.9831
   449.80         15.9970
   449.94         16.0149
   450.08         16.0341
   450.22         16.0495
   450.36         16.0583
   450.50         16.0601
   450.64         16.0539
   450.78         16.0380
   450.92         16.0107
   451.06         15.9710
   451.20         15.9176
   451.34         15.8504
   451.48         15.7718
   451.62         15.6870
   451.76         15.6009
   451.90         15.5169
   452.04         15.4370
   452.18         15.3634
   452.32         15.2993
   452.46         15.2470
   452.60         15.2083
   452.74         15.1851
   452.88         15.1777
   453.02         15.1855
   453.16         15.2065
   453.30         15.2364
   453.44         15.2689
   453.58         15.2976
   453.72         15.3155
   453.86         15.3180
   454.00         15.3038
   454.14         15.2730
   454.28         15.2268
   454.42         15.1687
   454.56         15.1043
   454.70         15.0412
   454.84         14.9901
   454.98         14.9599
   455.12         14.9536
   455.26         14.9711
   455.40         15.0091
   455.54         15.0607
   455.68         15.1177
   455.82         15.1722
   455.96         15.2152
   456.10         15.2392
   456.24         15.2409
   456.38         15.2218
   456.52         15.1865
   456.66         15.1403
   456.80         15.0875
   456.94         15.0328
   457.08         14.9806
   457.22         14.9332
   457.36         14.8925
   457.50         14.8594
   457.64         14.8324
   457.78         14.8097
   457.92         14.7921
   458.06         14.7811
