# File HD110964
# Wavelength [nm]    Normalized Amplitude
   349.70         0.4001
   349.84         0.3926
   349.98         0.3869
   350.12         0.3822
   350.26         0.3780
   350.40         0.3744
   350.54         0.3716
   350.68         0.3699
   350.82         0.3691
   350.96         0.3688
   351.10         0.3686
   351.24         0.3688
   351.38         0.3691
   351.52         0.3699
   351.66         0.3716
   351.80         0.3744
   351.94         0.3780
   352.08         0.3822
   352.22         0.3869
   352.36         0.3926
   352.50         0.4001
   352.64         0.4103
   352.78         0.4236
   352.92         0.4394
   353.06         0.4564
   353.20         0.4730
   353.34         0.4868
   353.48         0.4959
   353.62         0.4992
   353.76         0.4967
   353.90         0.4892
   354.04         0.4783
   354.18         0.4654
   354.32         0.4521
   354.46         0.4392
   354.60         0.4279
   354.74         0.4193
   354.88         0.4137
   355.02         0.4108
   355.16         0.4099
   355.30         0.4098
   355.44         0.4092
   355.58         0.4065
   355.72         0.4010
   355.86         0.3925
   356.00         0.3810
   356.14         0.3662
   356.28         0.3485
   356.42         0.3289
   356.56         0.3085
   356.70         0.2879
   356.84         0.2682
   356.98         0.2507
   357.12         0.2370
   357.26         0.2282
   357.40         0.2245
   357.54         0.2259
   357.68         0.2322
   357.82         0.2430
   357.96         0.2573
   358.10         0.2732
   358.24         0.2888
   358.38         0.3030
   358.52         0.3156
   358.66         0.3271
   358.80         0.3389
   358.94         0.3527
   359.08         0.3694
   359.22         0.3887
   359.36         0.4097
   359.50         0.4317
   359.64         0.4541
   359.78         0.4757
   359.92         0.4949
   360.06         0.5098
   360.20         0.5186
   360.34         0.5204
   360.48         0.5149
   360.62         0.5028
   360.76         0.4855
   360.90         0.4657
   361.04         0.4468
   361.18         0.4320
   361.32         0.4239
   361.46         0.4234
   361.60         0.4304
   361.74         0.4429
   361.88         0.4590
   362.02         0.4767
   362.16         0.4940
   362.30         0.5089
   362.44         0.5203
   362.58         0.5277
   362.72         0.5314
   362.86         0.5324
   363.00         0.5320
   363.14         0.5315
   363.28         0.5313
   363.42         0.5319
   363.56         0.5336
   363.70         0.5372
   363.84         0.5425
   363.98         0.5487
   364.12         0.5548
   364.26         0.5603
   364.40         0.5654
   364.54         0.5704
   364.68         0.5756
   364.82         0.5814
   364.96         0.5881
   365.10         0.5954
   365.24         0.6020
   365.38         0.6066
   365.52         0.6087
   365.66         0.6082
   365.80         0.6051
   365.94         0.5997
   366.08         0.5928
   366.22         0.5861
   366.36         0.5813
   366.50         0.5800
   366.64         0.5834
   366.78         0.5917
   366.92         0.6038
   367.06         0.6176
   367.20         0.6313
   367.34         0.6434
   367.48         0.6529
   367.62         0.6586
   367.76         0.6600
   367.90         0.6579
   368.04         0.6543
   368.18         0.6512
   368.32         0.6492
   368.46         0.6482
   368.60         0.6483
   368.74         0.6496
   368.88         0.6522
   369.02         0.6557
   369.16         0.6595
   369.30         0.6624
   369.44         0.6632
   369.58         0.6611
   369.72         0.6559
   369.86         0.6479
   370.00         0.6370
   370.14         0.6238
   370.28         0.6100
   370.42         0.5983
   370.56         0.5912
   370.70         0.5897
   370.84         0.5931
   370.98         0.6002
   371.12         0.6097
   371.26         0.6208
   371.40         0.6327
   371.54         0.6445
   371.68         0.6548
   371.82         0.6626
   371.96         0.6674
   372.10         0.6690
   372.24         0.6670
   372.38         0.6609
   372.52         0.6505
   372.66         0.6366
   372.80         0.6208
   372.94         0.6047
   373.08         0.5894
   373.22         0.5746
   373.36         0.5598
   373.50         0.5445
   373.64         0.5287
   373.78         0.5131
   373.92         0.4984
   374.06         0.4851
   374.20         0.4743
   374.34         0.4671
   374.48         0.4651
   374.62         0.4690
   374.76         0.4776
   374.90         0.4901
   375.04         0.5065
   375.18         0.5272
   375.32         0.5519
   375.46         0.5795
   375.60         0.6080
   375.74         0.6347
   375.88         0.6578
   376.02         0.6767
   376.16         0.6923
   376.30         0.7058
   376.44         0.7185
   376.58         0.7308
   376.72         0.7431
   376.86         0.7565
   377.00         0.7717
   377.14         0.7880
   377.28         0.8045
   377.42         0.8206
   377.56         0.8354
   377.70         0.8473
   377.84         0.8543
   377.98         0.8558
   378.12         0.8521
   378.26         0.8437
   378.40         0.8315
   378.54         0.8164
   378.68         0.7992
   378.82         0.7803
   378.96         0.7600
   379.10         0.7393
   379.24         0.7204
   379.38         0.7061
   379.52         0.6981
   379.66         0.6967
   379.80         0.7014
   379.94         0.7111
   380.08         0.7245
   380.22         0.7394
   380.36         0.7537
   380.50         0.7659
   380.64         0.7749
   380.78         0.7794
   380.92         0.7783
   381.06         0.7708
   381.20         0.7576
   381.34         0.7399
   381.48         0.7198
   381.62         0.6993
   381.76         0.6801
   381.90         0.6636
   382.04         0.6506
   382.18         0.6412
   382.32         0.6356
   382.46         0.6332
   382.60         0.6334
   382.74         0.6352
   382.88         0.6372
   383.02         0.6386
   383.16         0.6392
   383.30         0.6397
   383.44         0.6407
   383.58         0.6427
   383.72         0.6462
   383.86         0.6514
   384.00         0.6580
   384.14         0.6662
   384.28         0.6759
   384.42         0.6868
   384.56         0.6983
   384.70         0.7090
   384.84         0.7176
   384.98         0.7228
   385.12         0.7243
   385.26         0.7226
   385.40         0.7192
   385.54         0.7154
   385.68         0.7131
   385.82         0.7139
   385.96         0.7186
   386.10         0.7269
   386.24         0.7381
   386.38         0.7510
   386.52         0.7646
   386.66         0.7781
   386.80         0.7910
   386.94         0.8023
   387.08         0.8114
   387.22         0.8179
   387.36         0.8220
   387.50         0.8240
   387.64         0.8249
   387.78         0.8259
   387.92         0.8281
   388.06         0.8319
   388.20         0.8373
   388.34         0.8438
   388.48         0.8511
   388.62         0.8584
   388.76         0.8654
   388.90         0.8715
   389.04         0.8763
   389.18         0.8796
   389.32         0.8812
   389.46         0.8813
   389.60         0.8803
   389.74         0.8790
   389.88         0.8781
   390.02         0.8782
   390.16         0.8806
   390.30         0.8859
   390.44         0.8943
   390.58         0.9046
   390.72         0.9156
   390.86         0.9255
   391.00         0.9324
   391.14         0.9343
   391.28         0.9296
   391.42         0.9176
   391.56         0.8984
   391.70         0.8724
   391.84         0.8401
   391.98         0.8024
   392.12         0.7605
   392.26         0.7156
   392.40         0.6694
   392.54         0.6235
   392.68         0.5799
   392.82         0.5405
   392.96         0.5069
   393.10         0.4808
   393.24         0.4634
   393.38         0.4554
   393.52         0.4565
   393.66         0.4666
   393.80         0.4855
   393.94         0.5128
   394.08         0.5473
   394.22         0.5876
   394.36         0.6320
   394.50         0.6781
   394.64         0.7234
   394.78         0.7656
   394.92         0.8020
   395.06         0.8304
   395.20         0.8488
   395.34         0.8559
   395.48         0.8511
   395.62         0.8341
   395.76         0.8055
   395.90         0.7669
   396.04         0.7216
   396.18         0.6739
   396.32         0.6289
   396.46         0.5911
   396.60         0.5648
   396.74         0.5531
   396.88         0.5576
   397.02         0.5782
   397.16         0.6135
   397.30         0.6616
   397.44         0.7203
   397.58         0.7874
   397.72         0.8598
   397.86         0.9348
   398.00         1.0096
   398.14         1.0817
   398.28         1.1495
   398.42         1.2117
   398.56         1.2672
   398.70         1.3149
   398.84         1.3542
   398.98         1.3857
   399.12         1.4110
   399.26         1.4319
   399.40         1.4498
   399.54         1.4657
   399.68         1.4805
   399.82         1.4954
   399.96         1.5116
   400.10         1.5298
   400.24         1.5504
   400.38         1.5740
   400.52         1.6014
   400.66         1.6328
   400.80         1.6676
   400.94         1.7036
   401.08         1.7379
   401.22         1.7680
   401.36         1.7931
   401.50         1.8140
   401.64         1.8318
   401.78         1.8466
   401.92         1.8574
   402.06         1.8627
   402.20         1.8612
   402.34         1.8537
   402.48         1.8427
   402.62         1.8317
   402.76         1.8242
   402.90         1.8226
   403.04         1.8276
   403.18         1.8381
   403.32         1.8516
   403.46         1.8648
   403.60         1.8756
   403.74         1.8834
   403.88         1.8897
   404.02         1.8967
   404.16         1.9058
   404.30         1.9167
   404.44         1.9284
   404.58         1.9398
   404.72         1.9509
   404.86         1.9631
   405.00         1.9782
   405.14         1.9964
   405.28         2.0157
   405.42         2.0331
   405.56         2.0464
   405.70         2.0546
   405.84         2.0579
   405.98         2.0573
   406.12         2.0545
   406.26         2.0520
   406.40         2.0512
   406.54         2.0515
   406.68         2.0510
   406.82         2.0484
   406.96         2.0438
   407.10         2.0388
   407.24         2.0359
   407.38         2.0379
   407.52         2.0475
   407.66         2.0671
   407.80         2.0985
   407.94         2.1429
   408.08         2.2000
   408.22         2.2676
   408.36         2.3414
   408.50         2.4153
   408.64         2.4828
   408.78         2.5373
   408.92         2.5729
   409.06         2.5853
   409.20         2.5737
   409.34         2.5413
   409.48         2.4946
   409.62         2.4407
   409.76         2.3858
   409.90         2.3351
   410.04         2.2923
   410.18         2.2598
   410.32         2.2388
   410.46         2.2280
   410.60         2.2252
   410.74         2.2275
   410.88         2.2325
   411.02         2.2380
   411.16         2.2421
   411.30         2.2447
   411.44         2.2470
   411.58         2.2510
   411.72         2.2580
   411.86         2.2688
   412.00         2.2834
   412.14         2.3005
   412.28         2.3172
   412.42         2.3308
   412.56         2.3396
   412.70         2.3433
   412.84         2.3429
   412.98         2.3393
   413.12         2.3322
   413.26         2.3213
   413.40         2.3071
   413.54         2.2914
   413.68         2.2766
   413.82         2.2656
   413.96         2.2607
   414.10         2.2632
   414.24         2.2730
   414.38         2.2901
   414.52         2.3146
   414.66         2.3467
   414.80         2.3858
   414.94         2.4308
   415.08         2.4808
   415.22         2.5338
   415.36         2.5871
   415.50         2.6371
   415.64         2.6800
   415.78         2.7126
   415.92         2.7340
   416.06         2.7439
   416.20         2.7421
   416.34         2.7284
   416.48         2.7033
   416.62         2.6690
   416.76         2.6292
   416.90         2.5883
   417.04         2.5509
   417.18         2.5209
   417.32         2.5018
   417.46         2.4964
   417.60         2.5052
   417.74         2.5268
   417.88         2.5583
   418.02         2.5962
   418.16         2.6367
   418.30         2.6768
   418.44         2.7143
   418.58         2.7467
   418.72         2.7715
   418.86         2.7864
   419.00         2.7899
   419.14         2.7821
   419.28         2.7639
   419.42         2.7374
   419.56         2.7056
   419.70         2.6724
   419.84         2.6429
   419.98         2.6214
   420.12         2.6102
   420.26         2.6097
   420.40         2.6187
   420.54         2.6353
   420.68         2.6567
   420.82         2.6795
   420.96         2.6997
   421.10         2.7120
   421.24         2.7103
   421.38         2.6888
   421.52         2.6431
   421.66         2.5717
   421.80         2.4772
   421.94         2.3654
   422.08         2.2447
   422.22         2.1243
   422.36         2.0136
   422.50         1.9210
   422.64         1.8528
   422.78         1.8135
   422.92         1.8061
   423.06         1.8318
   423.20         1.8906
   423.34         1.9807
   423.48         2.0977
   423.62         2.2338
   423.76         2.3786
   423.90         2.5205
   424.04         2.6489
   424.18         2.7553
   424.32         2.8342
   424.46         2.8831
   424.60         2.9026
   424.74         2.8956
   424.88         2.8661
   425.02         2.8192
   425.16         2.7619
   425.30         2.7023
   425.44         2.6500
   425.58         2.6139
   425.72         2.6005
   425.86         2.6122
   426.00         2.6457
   426.14         2.6932
   426.28         2.7440
   426.42         2.7878
   426.56         2.8171
   426.70         2.8287
   426.84         2.8235
   426.98         2.8048
   427.12         2.7779
   427.26         2.7481
   427.40         2.7207
   427.54         2.6994
   427.68         2.6867
   427.82         2.6830
   427.96         2.6866
   428.10         2.6938
   428.24         2.7006
   428.38         2.7038
   428.52         2.7023
   428.66         2.6962
   428.80         2.6869
   428.94         2.6757
   429.08         2.6646
   429.22         2.6554
   429.36         2.6493
   429.50         2.6454
   429.64         2.6411
   429.78         2.6340
   429.92         2.6236
   430.06         2.6128
   430.20         2.6058
   430.34         2.6064
   430.48         2.6184
   430.62         2.6469
   430.76         2.6973
   430.90         2.7730
   431.04         2.8727
   431.18         2.9908
   431.32         3.1179
   431.46         3.2423
   431.60         3.3538
   431.74         3.4467
   431.88         3.5200
   432.02         3.5749
   432.16         3.6146
   432.30         3.6444
   432.44         3.6714
   432.58         3.7018
   432.72         3.7378
   432.86         3.7767
   433.00         3.8138
   433.14         3.8459
   433.28         3.8724
   433.42         3.8923
   433.56         3.9041
   433.70         3.9080
   433.84         3.9056
   433.98         3.8992
   434.12         3.8905
   434.26         3.8818
   434.40         3.8770
   434.54         3.8793
   434.68         3.8898
   434.82         3.9080
   434.96         3.9314
   435.10         3.9569
   435.24         3.9818
   435.38         4.0059
   435.52         4.0310
   435.66         4.0597
   435.80         4.0940
   435.94         4.1341
   436.08         4.1788
   436.22         4.2252
   436.36         4.2689
   436.50         4.3049
   436.64         4.3292
   436.78         4.3410
   436.92         4.3427
   437.06         4.3366
   437.20         4.3223
   437.34         4.2972
   437.48         4.2595
   437.62         4.2108
   437.76         4.1556
   437.90         4.0984
   438.04         4.0434
   438.18         3.9936
   438.32         3.9520
   438.46         3.9212
   438.60         3.9047
   438.74         3.9054
   438.88         3.9241
   439.02         3.9590
   439.16         4.0069
   439.30         4.0622
   439.44         4.1145
   439.58         4.1519
   439.72         4.1648
   439.86         4.1499
   440.00         4.1117
   440.14         4.0598
   440.28         4.0051
   440.42         3.9559
   440.56         3.9183
   440.70         3.8982
   440.84         3.9011
   440.98         3.9291
   441.12         3.9808
   441.26         4.0518
   441.40         4.1353
   441.54         4.2218
   441.68         4.3017
   441.82         4.3669
   441.96         4.4117
   442.10         4.4339
   442.24         4.4355
   442.38         4.4206
   442.52         4.3941
   442.66         4.3609
   442.80         4.3262
   442.94         4.2938
   443.08         4.2662
   443.22         4.2458
   443.36         4.2349
   443.50         4.2363
   443.64         4.2512
   443.78         4.2803
   443.92         4.3243
   444.06         4.3814
   444.20         4.4468
   444.34         4.5139
   444.48         4.5761
   444.62         4.6272
   444.76         4.6616
   444.90         4.6746
   445.04         4.6628
   445.18         4.6269
   445.32         4.5703
   445.46         4.4972
   445.60         4.4113
   445.74         4.3177
   445.88         4.2230
   446.02         4.1361
   446.16         4.0657
   446.30         4.0180
   446.44         3.9965
   446.58         4.0022
   446.72         4.0340
   446.86         4.0889
   447.00         4.1617
   447.14         4.2467
   447.28         4.3384
   447.42         4.4324
   447.56         4.5251
   447.70         4.6133
   447.84         4.6949
   447.98         4.7683
   448.12         4.8324
   448.26         4.8868
   448.40         4.9310
   448.54         4.9655
   448.68         4.9925
   448.82         5.0155
   448.96         5.0376
   449.10         5.0616
   449.24         5.0891
   449.38         5.1192
   449.52         5.1488
   449.66         5.1759
   449.80         5.1995
   449.94         5.2194
   450.08         5.2339
   450.22         5.2398
   450.36         5.2353
   450.50         5.2207
   450.64         5.1974
   450.78         5.1679
   450.92         5.1356
   451.06         5.1054
   451.20         5.0825
   451.34         5.0707
   451.48         5.0700
   451.62         5.0763
   451.76         5.0836
   451.90         5.0851
   452.04         5.0746
   452.18         5.0470
   452.32         5.0002
   452.46         4.9360
   452.60         4.8613
   452.74         4.7853
   452.88         4.7174
   453.02         4.6657
   453.16         4.6373
   453.30         4.6365
   453.44         4.6646
   453.58         4.7189
   453.72         4.7919
   453.86         4.8740
   454.00         4.9555
   454.14         5.0274
   454.28         5.0831
   454.42         5.1208
   454.56         5.1431
   454.70         5.1564
   454.84         5.1694
   454.98         5.1909
   455.12         5.2286
   455.26         5.2866
   455.40         5.3649
   455.54         5.4607
   455.68         5.5707
   455.82         5.6894
   455.96         5.8090
   456.10         5.9219
   456.24         6.0227
   456.38         6.1075
   456.52         6.1750
   456.66         6.2247
   456.80         6.2568
   456.94         6.2742
   457.08         6.2807
   457.22         6.2777
   457.36         6.2613
   457.50         6.2255
   457.64         6.1649
   457.78         6.0775
   457.92         5.9644
   458.06         5.8292
   458.20         5.6764
   458.34         5.5116
   458.48         5.3420
   458.62         5.1770
   458.76         5.0269
   458.90         4.9001
   459.04         4.8026
   459.18         4.7381
   459.32         4.7073
   459.46         4.7083
   459.60         4.7382
   459.74         4.7931
   459.88         4.8671
   460.02         4.9557
   460.16         5.0570
   460.30         5.1711
   460.44         5.2979
   460.58         5.4357
   460.72         5.5814
   460.86         5.7308
   461.00         5.8801
   461.14         6.0243
