# File HD12027
# Wavelength [nm]    Normalized Amplitude
   349.70         28.4870
   349.84         28.4662
   349.98         28.3996
   350.12         28.2848
   350.26         28.1244
   350.40         27.9270
   350.54         27.7106
   350.68         27.4989
   350.82         27.3186
   350.96         27.1960
   351.10         27.1522
   351.24         27.1960
   351.38         27.3186
   351.52         27.4989
   351.66         27.7106
   351.80         27.9270
   351.94         28.1244
   352.08         28.2848
   352.22         28.3996
   352.36         28.4662
   352.50         28.4870
   352.64         28.4693
   352.78         28.4226
   352.92         28.3599
   353.06         28.3001
   353.20         28.2651
   353.34         28.2695
   353.48         28.3156
   353.62         28.3965
   353.76         28.5016
   353.90         28.6175
   354.04         28.7265
   354.18         28.8111
   354.32         28.8586
   354.46         28.8603
   354.60         28.8114
   354.74         28.7127
   354.88         28.5724
   355.02         28.4025
   355.16         28.2155
   355.30         28.0211
   355.44         27.8261
   355.58         27.6384
   355.72         27.4649
   355.86         27.3060
   356.00         27.1552
   356.14         27.0038
   356.28         26.8470
   356.42         26.6797
   356.56         26.4955
   356.70         26.2923
   356.84         26.0778
   356.98         25.8633
   357.12         25.6573
   357.26         25.4629
   357.40         25.2801
   357.54         25.1073
   357.68         24.9413
   357.82         24.7802
   357.96         24.6257
   358.10         24.4832
   358.24         24.3612
   358.38         24.2693
   358.52         24.2188
   358.66         24.2188
   358.80         24.2719
   358.94         24.3748
   359.08         24.5172
   359.22         24.6843
   359.36         24.8592
   359.50         25.0199
   359.64         25.1402
   359.78         25.1989
   359.92         25.1870
   360.06         25.1083
   360.20         24.9771
   360.34         24.8136
   360.48         24.6375
   360.62         24.4649
   360.76         24.3082
   360.90         24.1778
   361.04         24.0822
   361.18         24.0243
   361.32         23.9999
   361.46         24.0055
   361.60         24.0395
   361.74         24.0961
   361.88         24.1675
   362.02         24.2475
   362.16         24.3286
   362.30         24.4019
   362.44         24.4631
   362.58         24.5133
   362.72         24.5574
   362.86         24.6021
   363.00         24.6533
   363.14         24.7130
   363.28         24.7795
   363.42         24.8511
   363.56         24.9274
   363.70         25.0088
   363.84         25.0966
   363.98         25.1934
   364.12         25.2996
   364.26         25.4099
   364.40         25.5175
   364.54         25.6217
   364.68         25.7253
   364.82         25.8299
   364.96         25.9368
   365.10         26.0472
   365.24         26.1586
   365.38         26.2641
   365.52         26.3545
   365.66         26.4218
   365.80         26.4629
   365.94         26.4821
   366.08         26.4903
   366.22         26.5011
   366.36         26.5262
   366.50         26.5702
   366.64         26.6264
   366.78         26.6824
   366.92         26.7290
   367.06         26.7607
   367.20         26.7728
   367.34         26.7626
   367.48         26.7295
   367.62         26.6746
   367.76         26.5996
   367.90         26.5081
   368.04         26.4091
   368.18         26.3168
   368.32         26.2450
   368.46         26.2021
   368.60         26.1917
   368.74         26.2128
   368.88         26.2591
   369.02         26.3173
   369.16         26.3689
   369.30         26.3978
   369.44         26.3988
   369.58         26.3773
   369.72         26.3391
   369.86         26.2855
   370.00         26.2154
   370.14         26.1313
   370.28         26.0459
   370.42         25.9805
   370.56         25.9597
   370.70         26.0006
   370.84         26.1018
   370.98         26.2421
   371.12         26.3957
   371.26         26.5511
   371.40         26.7126
   371.54         26.8935
   371.68         27.1133
   371.82         27.3898
   371.96         27.7260
   372.10         28.0999
   372.24         28.4672
   372.38         28.7775
   372.52         28.9944
   372.66         29.1119
   372.80         29.1552
   372.94         29.1638
   373.08         29.1747
   373.22         29.2135
   373.36         29.2872
   373.50         29.3862
   373.64         29.4941
   373.78         29.5942
   373.92         29.6709
   374.06         29.7104
   374.20         29.7096
   374.34         29.6761
   374.48         29.6186
   374.62         29.5469
   374.76         29.4832
   374.90         29.4731
   375.04         29.5766
   375.18         29.8467
   375.32         30.3078
   375.46         30.9377
   375.60         31.6634
   375.74         32.3752
   375.88         32.9528
   376.02         33.2976
   376.16         33.3608
   376.30         33.1551
   376.44         32.7531
   376.58         32.2790
   376.72         31.8865
   376.86         31.7238
   377.00         31.8983
   377.14         32.4672
   377.28         33.4457
   377.42         34.8078
   377.56         36.4815
   377.70         38.3486
   377.84         40.2552
   377.98         42.0307
   378.12         43.5053
   378.26         44.5298
   378.40         44.9974
   378.54         44.8591
   378.68         44.1351
   378.82         42.9139
   378.96         41.3385
   379.10         39.5884
   379.24         37.8596
   379.38         36.3352
   379.52         35.1632
   379.66         34.4570
   379.80         34.2951
   379.94         34.7069
   380.08         35.6627
   380.22         37.0811
   380.36         38.8506
   380.50         40.8482
   380.64         42.9452
   380.78         45.0108
   380.92         46.9261
   381.06         48.5994
   381.20         49.9723
   381.34         51.0125
   381.48         51.7011
   381.62         52.0229
   381.76         51.9645
   381.90         51.5133
   382.04         50.6557
   382.18         49.3876
   382.32         47.7294
   382.46         45.7277
   382.60         43.4583
   382.74         41.0373
   382.88         38.6210
   383.02         36.3894
   383.16         34.5178
   383.30         33.1500
   383.44         32.3860
   383.58         32.2789
   383.72         32.8354
   383.86         34.0163
   384.00         35.7398
   384.14         37.8915
   384.28         40.3350
   384.42         42.9217
   384.56         45.5031
   384.70         47.9475
   384.84         50.1631
   384.98         52.1068
   385.12         53.7751
   385.26         55.1907
   385.40         56.3902
   385.54         57.4096
   385.68         58.2752
   385.82         59.0008
   385.96         59.5868
   386.10         60.0217
   386.24         60.2906
   386.38         60.3793
   386.52         60.2693
   386.66         59.9347
   386.80         59.3524
   386.94         58.5087
   387.08         57.3972
   387.22         56.0169
   387.36         54.3708
   387.50         52.4678
   387.64         50.3250
   387.78         47.9733
   387.92         45.4695
   388.06         42.9007
   388.20         40.3801
   388.34         38.0370
   388.48         36.0016
   388.62         34.3893
   388.76         33.2936
   388.90         32.7823
   389.04         32.8839
   389.18         33.5798
   389.32         34.8134
   389.46         36.5033
   389.60         38.5477
   389.74         40.8342
   389.88         43.2510
   390.02         45.6917
   390.16         48.0668
   390.30         50.3109
   390.44         52.3829
   390.58         54.2608
   390.72         55.9339
   390.86         57.3990
   391.00         58.6597
   391.14         59.7253
   391.28         60.6115
   391.42         61.3367
   391.56         61.9124
   391.70         62.3365
   391.84         62.5859
   391.98         62.6110
   392.12         62.3433
   392.26         61.7221
   392.40         60.7298
   392.54         59.4086
   392.68         57.8570
   392.82         56.2145
   392.96         54.6361
   393.10         53.2706
   393.24         52.2465
   393.38         51.6622
   393.52         51.5693
   393.66         51.9554
   393.80         52.7462
   393.94         53.8181
   394.08         55.0183
   394.22         56.1824
   394.36         57.1514
   394.50         57.7901
   394.64         58.0110
   394.78         57.7953
   394.92         57.1880
   395.06         56.2653
   395.20         55.0940
   395.34         53.7057
   395.48         52.0982
   395.62         50.2505
   395.76         48.1460
   395.90         45.7968
   396.04         43.2525
   396.18         40.6005
   396.32         37.9648
   396.46         35.4984
   396.60         33.3639
   396.74         31.7125
   396.88         30.6643
   397.02         30.2944
   397.16         30.6284
   397.30         31.6428
   397.44         33.2670
   397.58         35.3870
   397.72         37.8603
   397.86         40.5337
   398.00         43.2581
   398.14         45.9025
   398.28         48.3681
   398.42         50.5983
   398.56         52.5759
   398.70         54.3113
   398.84         55.8292
   398.98         57.1552
   399.12         58.3095
   399.26         59.3055
   399.40         60.1536
   399.54         60.8686
   399.68         61.4729
   399.82         61.9958
   399.96         62.4666
   400.10         62.9091
   400.24         63.3409
   400.38         63.7750
   400.52         64.2177
   400.66         64.6680
   400.80         65.1220
   400.94         65.5722
   401.08         66.0042
   401.22         66.3993
   401.36         66.7418
   401.50         67.0221
   401.64         67.2319
   401.78         67.3614
   401.92         67.4018
   402.06         67.3521
   402.20         67.2234
   402.34         67.0351
   402.48         66.8121
   402.62         66.5831
   402.76         66.3786
   402.90         66.2257
   403.04         66.1412
   403.18         66.1288
   403.32         66.1776
   403.46         66.2655
   403.60         66.3665
   403.74         66.4593
   403.88         66.5314
   404.02         66.5754
   404.16         66.5832
   404.30         66.5457
   404.44         66.4581
   404.58         66.3256
   404.72         66.1644
   404.86         65.9946
   405.00         65.8297
   405.14         65.6682
   405.28         65.4959
   405.42         65.2941
   405.56         65.0478
   405.70         64.7513
   405.84         64.4043
   405.98         64.0082
   406.12         63.5687
   406.26         63.0939
   406.40         62.5856
   406.54         62.0365
   406.68         61.4366
   406.82         60.7846
   406.96         60.0899
   407.10         59.3657
   407.24         58.6265
   407.38         57.8847
   407.52         57.1480
   407.66         56.4182
   407.80         55.6940
   407.94         54.9722
   408.08         54.2424
   408.22         53.4816
   408.36         52.6536
   408.50         51.7121
   408.64         50.6076
   408.78         49.2957
   408.92         47.7403
   409.06         45.9249
   409.20         43.8707
   409.34         41.6459
   409.48         39.3578
   409.62         37.1359
   409.76         35.1160
   409.90         33.4283
   410.04         32.1852
   410.18         31.4714
   410.32         31.3353
   410.46         31.7842
   410.60         32.7831
   410.74         34.2554
   410.88         36.0943
   411.02         38.1784
   411.16         40.3829
   411.30         42.5897
   411.44         44.6955
   411.58         46.6229
   411.72         48.3293
   411.86         49.8028
   412.00         51.0477
   412.14         52.0795
   412.28         52.9242
   412.42         53.6155
   412.56         54.1918
   412.70         54.6944
   412.84         55.1616
   412.98         55.6209
   413.12         56.0844
   413.26         56.5556
   413.40         57.0372
   413.54         57.5333
   413.68         58.0416
   413.82         58.5500
   413.96         59.0369
   414.10         59.4749
   414.24         59.8386
   414.38         60.1105
   414.52         60.2854
   414.66         60.3746
   414.80         60.4002
   414.94         60.3843
   415.08         60.3461
   415.22         60.3047
   415.36         60.2764
   415.50         60.2706
   415.64         60.2899
   415.78         60.3375
   415.92         60.4148
   416.06         60.5132
   416.20         60.6102
   416.34         60.6764
   416.48         60.6850
   416.62         60.6128
   416.76         60.4455
   416.90         60.1862
   417.04         59.8576
   417.18         59.4948
   417.32         59.1321
   417.46         58.7957
   417.60         58.5087
   417.74         58.2928
   417.88         58.1634
   418.02         58.1260
   418.16         58.1789
   418.30         58.3129
   418.44         58.5089
   418.58         58.7360
   418.72         58.9578
   418.86         59.1411
   419.00         59.2612
   419.14         59.3026
   419.28         59.2608
   419.42         59.1472
   419.56         58.9852
   419.70         58.8006
   419.84         58.6164
   419.98         58.4546
   420.12         58.3391
   420.26         58.2908
   420.40         58.3189
   420.54         58.4200
   420.68         58.5813
   420.82         58.7833
   420.96         59.0002
   421.10         59.2030
   421.24         59.3641
   421.38         59.4602
   421.52         59.4747
   421.66         59.4052
   421.80         59.2679
   421.94         59.0901
   422.08         58.8949
   422.22         58.6956
   422.36         58.4999
   422.50         58.3151
   422.64         58.1488
   422.78         58.0057
   422.92         57.8862
   423.06         57.7906
   423.20         57.7210
   423.34         57.6773
   423.48         57.6535
   423.62         57.6386
   423.76         57.6183
   423.90         57.5780
   424.04         57.5102
   424.18         57.4212
   424.32         57.3295
   424.46         57.2541
   424.60         57.2020
   424.74         57.1683
   424.88         57.1474
   425.02         57.1395
   425.16         57.1506
   425.30         57.1898
   425.44         57.2640
   425.58         57.3723
   425.72         57.5027
   425.86         57.6321
   426.00         57.7317
   426.14         57.7762
   426.28         57.7522
   426.42         57.6614
   426.56         57.5185
   426.70         57.3473
   426.84         57.1709
   426.98         57.0034
   427.12         56.8504
   427.26         56.7127
   427.40         56.5915
   427.54         56.4889
   427.68         56.4029
   427.82         56.3235
   427.96         56.2342
   428.10         56.1170
   428.24         55.9575
   428.38         55.7498
   428.52         55.4981
   428.66         55.2147
   428.80         54.9154
   428.94         54.6141
   429.08         54.3188
   429.22         54.0290
   429.36         53.7388
   429.50         53.4414
   429.64         53.1298
   429.78         52.8008
   429.92         52.4563
   430.06         52.0981
   430.20         51.7250
   430.34         51.3371
   430.48         50.9430
   430.62         50.5608
   430.76         50.2088
   430.90         49.8971
   431.04         49.6257
   431.18         49.3818
   431.32         49.1401
   431.46         48.8686
   431.60         48.5392
   431.74         48.1330
   431.88         47.6368
   432.02         47.0379
   432.16         46.3212
   432.30         45.4695
   432.44         44.4682
   432.58         43.3038
   432.72         41.9626
   432.86         40.4391
   433.00         38.7472
   433.14         36.9271
   433.28         35.0439
   433.42         33.1827
   433.56         31.4433
   433.70         29.9277
   433.84         28.7267
   433.98         27.9141
   434.12         27.5433
   434.26         27.6435
   434.40         28.2127
   434.54         29.2129
   434.68         30.5751
   434.82         32.2113
   434.96         34.0245
   435.10         35.9194
   435.24         37.8110
   435.38         39.6340
   435.52         41.3477
   435.66         42.9330
   435.80         44.3853
   435.94         45.7075
   436.08         46.9027
   436.22         47.9682
   436.36         48.8942
   436.50         49.6727
   436.64         50.3081
   436.78         50.8189
   436.92         51.2291
   437.06         51.5565
   437.20         51.8102
   437.34         51.9965
   437.48         52.1244
   437.62         52.2097
   437.76         52.2702
   437.90         52.3214
   438.04         52.3756
   438.18         52.4389
   438.32         52.5133
   438.46         52.5995
   438.60         52.6964
   438.74         52.7982
   438.88         52.8963
   439.02         52.9849
   439.16         53.0636
   439.30         53.1340
   439.44         53.1960
   439.58         53.2468
   439.72         53.2846
   439.86         53.3153
   440.00         53.3514
   440.14         53.4056
   440.28         53.4783
   440.42         53.5529
   440.56         53.6067
   440.70         53.6217
   440.84         53.5881
   440.98         53.5088
   441.12         53.3955
   441.26         53.2613
   441.40         53.1200
   441.54         52.9882
   441.68         52.8836
   441.82         52.8216
   441.96         52.8123
   442.10         52.8568
   442.24         52.9443
   442.38         53.0564
   442.52         53.1760
   442.66         53.2892
   442.80         53.3825
   442.94         53.4433
   443.08         53.4627
   443.22         53.4383
   443.36         53.3726
   443.50         53.2703
   443.64         53.1377
   443.78         52.9802
   443.92         52.8037
   444.06         52.6178
   444.20         52.4343
   444.34         52.2610
   444.48         52.0979
   444.62         51.9416
   444.76         51.7873
   444.90         51.6336
   445.04         51.4864
   445.18         51.3550
   445.32         51.2439
   445.46         51.1505
   445.60         51.0663
   445.74         50.9831
   445.88         50.9019
   446.02         50.8351
   446.16         50.7978
   446.30         50.7985
   446.44         50.8359
   446.58         50.9012
   446.72         50.9773
   446.86         51.0385
   447.00         51.0565
   447.14         51.0152
   447.28         50.9183
   447.42         50.7829
   447.56         50.6317
   447.70         50.4821
   447.84         50.3414
   447.98         50.2120
   448.12         50.0971
   448.26         50.0028
   448.40         49.9385
   448.54         49.9148
   448.68         49.9387
   448.82         50.0083
   448.96         50.1126
   449.10         50.2398
   449.24         50.3812
   449.38         50.5294
   449.52         50.6781
   449.66         50.8260
   449.80         50.9776
   449.94         51.1345
   450.08         51.2905
   450.22         51.4322
   450.36         51.5419
   450.50         51.6060
   450.64         51.6206
   450.78         51.5870
   450.92         51.5042
   451.06         51.3713
   451.20         51.1933
   451.34         50.9793
   451.48         50.7385
   451.62         50.4794
   451.76         50.2122
   451.90         49.9476
   452.04         49.6923
   452.18         49.4497
   452.32         49.2281
   452.46         49.0449
   452.60         48.9187
   452.74         48.8615
   452.88         48.8742
   453.02         48.9508
   453.16         49.0840
   453.30         49.2655
   453.44         49.4816
   453.58         49.7079
   453.72         49.9122
   453.86         50.0626
   454.00         50.1344
   454.14         50.1119
   454.28         49.9874
   454.42         49.7642
   454.56         49.4583
   454.70         49.0945
   454.84         48.7041
   454.98         48.3240
   455.12         47.9887
   455.26         47.7207
   455.40         47.5330
   455.54         47.4345
   455.68         47.4294
   455.82         47.5130
   455.96         47.6687
   456.10         47.8710
   456.24         48.0907
   456.38         48.3062
   456.52         48.5067
   456.66         48.6877
   456.80         48.8443
   456.94         48.9668
