# File HD12842
# Wavelength [nm]    Normalized Amplitude
   349.70         59.7421
   349.84         59.8532
   349.98         60.1826
   350.12         60.7122
   350.26         61.4234
   350.40         62.2689
   350.54         63.1696
   350.68         64.0268
   350.82         64.7333
   350.96         65.1983
   351.10         65.3609
   351.24         65.1983
   351.38         64.7333
   351.52         64.0268
   351.66         63.1696
   351.80         62.2689
   351.94         61.4234
   352.08         60.7122
   352.22         60.1826
   352.36         59.8532
   352.50         59.7421
   352.64         59.8775
   352.78         60.2726
   352.92         60.8991
   353.06         61.6971
   353.20         62.5980
   353.34         63.5304
   353.48         64.4285
   353.62         65.2452
   353.76         65.9518
   353.90         66.5367
   354.04         67.0278
   354.18         67.4546
   354.32         67.7964
   354.46         68.0028
   354.60         68.0377
   354.74         67.9080
   354.88         67.6483
   355.02         67.3131
   355.16         66.9654
   355.30         66.6433
   355.44         66.3566
   355.58         66.0928
   355.72         65.8166
   355.86         65.4853
   356.00         65.0670
   356.14         64.5489
   356.28         63.9360
   356.42         63.2460
   356.56         62.5240
   356.70         61.8395
   356.84         61.2329
   356.98         60.7170
   357.12         60.3161
   357.26         60.0428
   357.40         59.8663
   357.54         59.7116
   357.68         59.5027
   357.82         59.1849
   357.96         58.7391
   358.10         58.2044
   358.24         57.6610
   358.38         57.2095
   358.52         56.9624
   358.66         57.0161
   358.80         57.4127
   358.94         58.1408
   359.08         59.1546
   359.22         60.3774
   359.36         61.6965
   359.50         62.9640
   359.64         64.0372
   359.78         64.8191
   359.92         65.2568
   360.06         65.3389
   360.20         65.1025
   360.34         64.6364
   360.48         64.0573
   360.62         63.4702
   360.76         62.9395
   360.90         62.4955
   361.04         62.1550
   361.18         61.9313
   361.32         61.8306
   361.46         61.8445
   361.60         61.9579
   361.74         62.1470
   361.88         62.3691
   362.02         62.5695
   362.16         62.6885
   362.30         62.6974
   362.44         62.6098
   362.58         62.4531
   362.72         62.2628
   362.86         62.0811
   363.00         61.9464
   363.14         61.8685
   363.28         61.8337
   363.42         61.8491
   363.56         61.9471
   363.70         62.1480
   363.84         62.4361
   363.98         62.7753
   364.12         63.1297
   364.26         63.4768
   364.40         63.8261
   364.54         64.2209
   364.68         64.7155
   364.82         65.3498
   364.96         66.1503
   365.10         67.1126
   365.24         68.1801
   365.38         69.2688
   365.52         70.2999
   365.66         71.2133
   365.80         71.9564
   365.94         72.4933
   366.08         72.8188
   366.22         72.9385
   366.36         72.8683
   366.50         72.6544
   366.64         72.3784
   366.78         72.1265
   366.92         71.9630
   367.06         71.9246
   367.20         72.0096
   367.34         72.1805
   367.48         72.3920
   367.62         72.6164
   367.76         72.8446
   367.90         73.0911
   368.04         73.4041
   368.18         73.8460
   368.32         74.4652
   368.46         75.2813
   368.60         76.2996
   368.74         77.5329
   368.88         78.9938
   369.02         80.6694
   369.16         82.4977
   369.30         84.3596
   369.44         86.1027
   369.58         87.5821
   369.72         88.6892
   369.86         89.3667
   370.00         89.6164
   370.14         89.5000
   370.28         89.1356
   370.42         88.6972
   370.56         88.3838
   370.70         88.3628
   370.84         88.7116
   370.98         89.3927
   371.12         90.3085
   371.26         91.3767
   371.40         92.5449
   371.54         93.7591
   371.68         94.9447
   371.82         96.0236
   371.96         96.9237
   372.10         97.5732
   372.24         97.9042
   372.38         97.8725
   372.52         97.4920
   372.66         96.8606
   372.80         96.1467
   372.94         95.5484
   373.08         95.2390
   373.22         95.3126
   373.36         95.7606
   373.50         96.4790
   373.64         97.3127
   373.78         98.1224
   373.92         98.8046
   374.06         99.2979
   374.20         99.6001
   374.34         99.7547
   374.48         99.8134
   374.62         99.8101
   374.76         99.7837
   374.90         99.8275
   375.04         100.1044
   375.18         100.8023
   375.32         102.0458
   375.46         103.8224
   375.60         105.9654
   375.74         108.1858
   375.88         110.1489
   376.02         111.5708
   376.16         112.2915
   376.30         112.3210
   376.44         111.8568
   376.58         111.2501
   376.72         110.9114
   376.86         111.1985
   377.00         112.3408
   377.14         114.4191
   377.28         117.3912
   377.42         121.1132
   377.56         125.3500
   377.70         129.7888
   377.84         134.0583
   377.98         137.7678
   378.12         140.5461
   378.26         142.0885
   378.40         142.2056
   378.54         140.8538
   378.68         138.1458
   378.82         134.3502
   378.96         129.8888
   379.10         125.2963
   379.24         121.1282
   379.38         117.8567
   379.52         115.8104
   379.66         115.1836
   379.80         116.0593
   379.94         118.3943
   380.08         121.9909
   380.22         126.5278
   380.36         131.6266
   380.50         136.8992
   380.64         141.9759
   380.78         146.5107
   380.92         150.2234
   381.06         152.9510
   381.20         154.6483
   381.34         155.3628
   381.48         155.2065
   381.62         154.3090
   381.76         152.7699
   381.90         150.6323
   382.04         147.8862
   382.18         144.5000
   382.32         140.4582
   382.46         135.7823
   382.60         130.5532
   382.74         124.9554
   382.88         119.3110
   383.02         114.0545
   383.16         109.6495
   383.30         106.4975
   383.44         104.8793
   383.58         104.9415
   383.72         106.6879
   383.86         109.9765
   384.00         114.5600
   384.14         120.1345
   384.28         126.3633
   384.42         132.8829
   384.56         139.3020
   384.70         145.2468
   384.84         150.4447
   384.98         154.7732
   385.12         158.2666
   385.26         161.0564
   385.40         163.3063
   385.54         165.1953
   385.68         166.8951
   385.82         168.5176
   385.96         170.0757
   386.10         171.4979
   386.24         172.6778
   386.38         173.5234
   386.52         173.9735
   386.66         173.9856
   386.80         173.5266
   386.94         172.5665
   387.08         171.0667
   387.22         168.9813
   387.36         166.2801
   387.50         162.9492
   387.64         158.9751
   387.78         154.3678
   387.92         149.2064
   388.06         143.6692
   388.20         138.0117
   388.34         132.5033
   388.48         127.3923
   388.62         122.9170
   388.76         119.3326
   388.90         116.8978
   389.04         115.8119
   389.18         116.1423
   389.32         117.8061
   389.46         120.6036
   389.60         124.2560
   389.74         128.4491
   389.88         132.8756
   390.02         137.2535
   390.16         141.3407
   390.30         144.9638
   390.44         148.0304
   390.58         150.4927
   390.72         152.2986
   390.86         153.3903
   391.00         153.7437
   391.14         153.3895
   391.28         152.3874
   391.42         150.7832
   391.56         148.5717
   391.70         145.6698
   391.84         141.9259
   391.98         137.1710
   392.12         131.2844
   392.26         124.2460
   392.40         116.1716
   392.54         107.3329
   392.68         98.1532
   392.82         89.1826
   392.96         81.0448
   393.10         74.3579
   393.24         69.6616
   393.38         67.3613
   393.52         67.6680
   393.66         70.5438
   393.80         75.6864
   393.94         82.5705
   394.08         90.5431
   394.22         98.9288
   394.36         107.1021
   394.50         114.5432
   394.64         120.8950
   394.78         125.9792
   394.92         129.7525
   395.06         132.2414
   395.20         133.4753
   395.34         133.4293
   395.48         132.0107
   395.62         129.1035
   395.76         124.6551
   395.90         118.7521
   396.04         111.6549
   396.18         103.7982
   396.32         95.7710
   396.46         88.2679
   396.60         82.0067
   396.74         77.6293
   396.88         75.6006
   397.02         76.1477
   397.16         79.2629
   397.30         84.7277
   397.44         92.1233
   397.58         100.8582
   397.72         110.2558
   397.86         119.6634
   398.00         128.5310
   398.14         136.4532
   398.28         143.1926
   398.42         148.6784
   398.56         152.9679
   398.70         156.2084
   398.84         158.6045
   398.98         160.3716
   399.12         161.6854
   399.26         162.6531
   399.40         163.3339
   399.54         163.7941
   399.68         164.1374
   399.82         164.4876
   399.96         164.9476
   400.10         165.5718
   400.24         166.3721
   400.38         167.3486
   400.52         168.4982
   400.66         169.7983
   400.80         171.1954
   400.94         172.6106
   401.08         173.9502
   401.22         175.1284
   401.36         176.1000
   401.50         176.8463
   401.64         177.3254
   401.78         177.4455
   401.92         177.1103
   402.06         176.2987
   402.20         175.0802
   402.34         173.5747
   402.48         171.9355
   402.62         170.3441
   402.76         168.9832
   402.90         168.0024
   403.04         167.4877
   403.18         167.4495
   403.32         167.8219
   403.46         168.4879
   403.60         169.3209
   403.74         170.2128
   403.88         171.0764
   404.02         171.8223
   404.16         172.3279
   404.30         172.4689
   404.44         172.1917
   404.58         171.5622
   404.72         170.7485
   404.86         169.9462
   405.00         169.2970
   405.14         168.8489
   405.28         168.5784
   405.42         168.4192
   405.56         168.2936
   405.70         168.1502
   405.84         167.9615
   405.98         167.7128
   406.12         167.3920
   406.26         166.9541
   406.40         166.2975
   406.54         165.3071
   406.68         163.9323
   406.82         162.2237
   406.96         160.3227
   407.10         158.4020
   407.24         156.6094
   407.38         155.0540
   407.52         153.8087
   407.66         152.9250
   407.80         152.4534
   407.94         152.4384
   408.08         152.8672
   408.22         153.6418
   408.36         154.5816
   408.50         155.4325
   408.64         155.9014
   408.78         155.6779
   408.92         154.4814
   409.06         152.1690
   409.20         148.8108
   409.34         144.6652
   409.48         140.0886
   409.62         135.4617
   409.76         131.1592
   409.90         127.5396
   410.04         124.9326
   410.18         123.6069
   410.32         123.7179
   410.46         125.2614
   410.60         128.0611
   410.74         131.8021
   410.88         136.0868
   411.02         140.4876
   411.16         144.6051
   411.30         148.1257
   411.44         150.8514
   411.58         152.7146
   411.72         153.7693
   411.86         154.1344
   412.00         153.9487
   412.14         153.3669
   412.28         152.5691
   412.42         151.7636
   412.56         151.1750
   412.70         151.0149
   412.84         151.4282
   412.98         152.4383
   413.12         153.9456
   413.26         155.7866
   413.40         157.7992
   413.54         159.8377
   413.68         161.7574
   413.82         163.4263
   413.96         164.7429
   414.10         165.6337
   414.24         166.0527
   414.38         166.0054
   414.52         165.5676
   414.66         164.8712
   414.80         164.0612
   414.94         163.2652
   415.08         162.5859
   415.22         162.1008
   415.36         161.8545
   415.50         161.8498
   415.64         162.0587
   415.78         162.4411
   415.92         162.9344
   416.06         163.4295
   416.20         163.7778
   416.34         163.8290
   416.48         163.4606
   416.62         162.5897
   416.76         161.1945
   416.90         159.3304
   417.04         157.1244
   417.18         154.7498
   417.32         152.3873
   417.46         150.2020
   417.60         148.3492
   417.74         146.9765
   417.88         146.1987
   418.02         146.0684
   418.16         146.5681
   418.30         147.6164
   418.44         149.0618
   418.58         150.7034
   418.72         152.3485
   418.86         153.8461
   419.00         155.0793
   419.14         155.9533
   419.28         156.4120
   419.42         156.4549
   419.56         156.1269
   419.70         155.5048
   419.84         154.7013
   419.98         153.8637
   420.12         153.1552
   420.26         152.7240
   420.40         152.6760
   420.54         153.0582
   420.68         153.8554
   420.82         154.9988
   420.96         156.3620
   421.10         157.7626
   421.24         158.9952
   421.38         159.8737
   421.52         160.2688
   421.66         160.1427
   421.80         159.5580
   421.94         158.6385
   422.08         157.5185
   422.22         156.3213
   422.36         155.1536
   422.50         154.0966
   422.64         153.2025
   422.78         152.5043
   422.92         152.0292
   423.06         151.8038
   423.20         151.8386
   423.34         152.1026
   423.48         152.5142
   423.62         152.9599
   423.76         153.3333
   423.90         153.5709
   424.04         153.6699
   424.18         153.6813
   424.32         153.6749
   424.46         153.6953
   424.60         153.7361
   424.74         153.7622
   424.88         153.7569
   425.02         153.7476
   425.16         153.7955
   425.30         153.9812
   425.44         154.3811
   425.58         155.0244
   425.72         155.8601
   425.86         156.7621
   426.00         157.5748
   426.14         158.1693
   426.28         158.4790
   426.42         158.5046
   426.56         158.2991
   426.70         157.9441
   426.84         157.5222
   426.98         157.0941
   427.12         156.6919
   427.26         156.3320
   427.40         156.0309
   427.54         155.7995
   427.68         155.6083
   427.82         155.3749
   427.96         154.9998
   428.10         154.4013
   428.24         153.5283
   428.38         152.3683
   428.52         150.9546
   428.66         149.3579
   428.80         147.6569
   428.94         145.9112
   429.08         144.1730
   429.22         142.5027
   429.36         140.9555
   429.50         139.5730
   429.64         138.3970
   429.78         137.4894
   429.92         136.9268
   430.06         136.7471
   430.20         136.9185
   430.34         137.3775
   430.48         138.0901
   430.62         139.0515
   430.76         140.2348
   430.90         141.5656
   431.04         142.9387
   431.18         144.2410
   431.32         145.3562
   431.46         146.1972
   431.60         146.7490
   431.74         147.0615
   431.88         147.1906
   432.02         147.1555
   432.16         146.9512
   432.30         146.5583
   432.44         145.9192
   432.58         144.9038
   432.72         143.3265
   432.86         141.0311
   433.00         137.9770
   433.14         134.2575
   433.28         130.0739
   433.42         125.7089
   433.56         121.5025
   433.70         117.8068
   433.84         114.9223
   433.98         113.0629
   434.12         112.3717
   434.26         112.9277
   434.40         114.7147
   434.54         117.6069
   434.68         121.3890
   434.82         125.7808
   434.96         130.4648
   435.10         135.1357
   435.24         139.5535
   435.38         143.5770
   435.52         147.1514
   435.66         150.2762
   435.80         152.9783
   435.94         155.2846
   436.08         157.1903
   436.22         158.6364
   436.36         159.5411
   436.50         159.8730
   436.64         159.6983
   436.78         159.1682
   436.92         158.4555
   437.06         157.6794
   437.20         156.8719
   437.34         156.0107
   437.48         155.0836
   437.62         154.1234
   437.76         153.1833
   437.90         152.3000
   438.04         151.4779
   438.18         150.6931
   438.32         149.9220
   438.46         149.1671
   438.60         148.4392
   438.74         147.7243
   438.88         147.0023
   439.02         146.3015
   439.16         145.6918
   439.30         145.2250
   439.44         144.9066
   439.58         144.7015
   439.72         144.5600
   439.86         144.4598
   440.00         144.4354
   440.14         144.5447
   440.28         144.7886
   440.42         145.0822
   440.56         145.3067
   440.70         145.3702
   440.84         145.2321
   440.98         144.8999
   441.12         144.4133
   441.26         143.8256
   441.40         143.2048
   441.54         142.6381
   441.68         142.2091
   441.82         141.9615
   441.96         141.8897
   442.10         141.9555
   442.24         142.1037
   442.38         142.2895
   442.52         142.5094
   442.66         142.7895
   442.80         143.1362
   442.94         143.5100
   443.08         143.8456
   443.22         144.0959
   443.36         144.2559
   443.50         144.3370
   443.64         144.3440
   443.78         144.2831
   443.92         144.1763
   444.06         144.0550
   444.20         143.9324
   444.34         143.8009
   444.48         143.6564
   444.62         143.5168
   444.76         143.4080
   444.90         143.3438
   445.04         143.3212
   445.18         143.3199
   445.32         143.2916
   445.46         143.1658
   445.60         142.8818
   445.74         142.4312
   445.88         141.8868
   446.02         141.3774
   446.16         141.0259
   446.30         140.9235
   446.44         141.1354
   446.58         141.6957
   446.72         142.5775
   446.86         143.6828
   447.00         144.8854
   447.14         146.0846
   447.28         147.2172
   447.42         148.2344
   447.56         149.0869
   447.70         149.7278
   447.84         150.1249
   447.98         150.2676
   448.12         150.1628
   448.26         149.8412
   448.40         149.3714
   448.54         148.8628
   448.68         148.4281
   448.82         148.1418
   448.96         148.0382
   449.10         148.1382
   449.24         148.4539
   449.38         148.9694
   449.52         149.6516
   449.66         150.4709
   449.80         151.4084
   449.94         152.4415
   450.08         153.5177
   450.22         154.5525
   450.36         155.4557
   450.50         156.1599
   450.64         156.6181
   450.78         156.7910
   450.92         156.6524
   451.06         156.2014
   451.20         155.4614
   451.34         154.4703
   451.48         153.2686
   451.62         151.9034
   451.76         150.4343
   451.90         148.9100
   452.04         147.3556
   452.18         145.8028
   452.32         144.3237
   452.46         143.0405
   452.60         142.0785
   452.74         141.5033
   452.88         141.3152
   453.02         141.4773
   453.16         141.9313
   453.30         142.5998
   453.44         143.3907
   453.58         144.1972
   453.72         144.9039
   453.86         145.4110
   454.00         145.6387
