# File HD124320
# Wavelength [nm]    Normalized Amplitude
   349.70         10.9885
   349.84         11.0036
   349.98         11.0092
   350.12         11.0046
   350.26         10.9900
   350.40         10.9662
   350.54         10.9349
   350.68         10.8986
   350.82         10.8632
   350.96         10.8375
   351.10         10.8281
   351.24         10.8375
   351.38         10.8632
   351.52         10.8986
   351.66         10.9349
   351.80         10.9662
   351.94         10.9900
   352.08         11.0046
   352.22         11.0092
   352.36         11.0036
   352.50         10.9885
   352.64         10.9663
   352.78         10.9410
   352.92         10.9161
   353.06         10.8951
   353.20         10.8823
   353.34         10.8820
   353.48         10.8972
   353.62         10.9262
   353.76         10.9641
   353.90         11.0063
   354.04         11.0492
   354.18         11.0906
   354.32         11.1295
   354.46         11.1652
   354.60         11.1966
   354.74         11.2226
   354.88         11.2437
   355.02         11.2594
   355.16         11.2684
   355.30         11.2695
   355.44         11.2609
   355.58         11.2399
   355.72         11.2057
   355.86         11.1583
   356.00         11.0965
   356.14         11.0199
   356.28         10.9299
   356.42         10.8311
   356.56         10.7311
   356.70         10.6384
   356.84         10.5611
   356.98         10.5042
   357.12         10.4701
   357.26         10.4586
   357.40         10.4656
   357.54         10.4832
   357.68         10.5040
   357.82         10.5239
   357.96         10.5405
   358.10         10.5522
   358.24         10.5594
   358.38         10.5636
   358.52         10.5662
   358.66         10.5702
   358.80         10.5817
   358.94         10.6063
   359.08         10.6459
   359.22         10.6981
   359.36         10.7566
   359.50         10.8129
   359.64         10.8596
   359.78         10.8912
   359.92         10.9040
   360.06         10.8966
   360.20         10.8714
   360.34         10.8342
   360.48         10.7914
   360.62         10.7476
   360.76         10.7060
   360.90         10.6699
   361.04         10.6429
   361.18         10.6284
   361.32         10.6291
   361.46         10.6461
   361.60         10.6785
   361.74         10.7231
   361.88         10.7769
   362.02         10.8373
   362.16         10.9021
   362.30         10.9687
   362.44         11.0343
   362.58         11.0975
   362.72         11.1580
   362.86         11.2156
   363.00         11.2687
   363.14         11.3146
   363.28         11.3508
   363.42         11.3759
   363.56         11.3918
   363.70         11.3999
   363.84         11.4005
   363.98         11.3935
   364.12         11.3803
   364.26         11.3624
   364.40         11.3429
   364.54         11.3258
   364.68         11.3145
   364.82         11.3112
   364.96         11.3160
   365.10         11.3286
   365.24         11.3483
   365.38         11.3717
   365.52         11.3943
   365.66         11.4131
   365.80         11.4263
   365.94         11.4328
   366.08         11.4330
   366.22         11.4282
   366.36         11.4188
   366.50         11.4056
   366.64         11.3893
   366.78         11.3700
   366.92         11.3485
   367.06         11.3268
   367.20         11.3061
   367.34         11.2858
   367.48         11.2647
   367.62         11.2421
   367.76         11.2180
   367.90         11.1934
   368.04         11.1703
   368.18         11.1536
   368.32         11.1492
   368.46         11.1578
   368.60         11.1737
   368.74         11.1907
   368.88         11.2054
   369.02         11.2178
   369.16         11.2279
   369.30         11.2334
   369.44         11.2324
   369.58         11.2257
   369.72         11.2164
   369.86         11.2060
   370.00         11.1922
   370.14         11.1725
   370.28         11.1482
   370.42         11.1268
   370.56         11.1207
   370.70         11.1401
   370.84         11.1881
   370.98         11.2579
   371.12         11.3352
   371.26         11.4090
   371.40         11.4799
   371.54         11.5561
   371.68         11.6452
   371.82         11.7515
   371.96         11.8769
   372.10         12.0176
   372.24         12.1602
   372.38         12.2844
   372.52         12.3709
   372.66         12.4121
   372.80         12.4170
   372.94         12.4056
   373.08         12.4002
   373.22         12.4188
   373.36         12.4698
   373.50         12.5512
   373.64         12.6536
   373.78         12.7640
   373.92         12.8690
   374.06         12.9568
   374.20         13.0193
   374.34         13.0544
   374.48         13.0656
   374.62         13.0610
   374.76         13.0538
   374.90         13.0655
   375.04         13.1240
   375.18         13.2566
   375.32         13.4814
   375.46         13.7959
   375.60         14.1722
   375.74         14.5617
   375.88         14.9046
   376.02         15.1429
   376.16         15.2360
   376.30         15.1724
   376.44         14.9724
   376.58         14.6855
   376.72         14.3827
   376.86         14.1402
   377.00         14.0237
   377.14         14.0784
   377.28         14.3263
   377.42         14.7669
   377.56         15.3775
   377.70         16.1132
   377.84         16.9142
   377.98         17.7124
   378.12         18.4352
   378.26         19.0128
   378.40         19.3884
   378.54         19.5244
   378.68         19.4074
   378.82         19.0518
   378.96         18.4979
   379.10         17.8076
   379.24         17.0581
   379.38         16.3305
   379.52         15.6997
   379.66         15.2306
   379.80         14.9779
   379.94         14.9798
   380.08         15.2490
   380.22         15.7699
   380.36         16.5044
   380.50         17.3998
   380.64         18.3926
   380.78         19.4109
   380.92         20.3832
   381.06         21.2492
   381.20         21.9671
   381.34         22.5144
   381.48         22.8824
   381.62         23.0714
   381.76         23.0871
   381.90         22.9352
   382.04         22.6185
   382.18         22.1395
   382.32         21.5036
   382.46         20.7215
   382.60         19.8125
   382.74         18.8092
   382.88         17.7620
   383.02         16.7378
   383.16         15.8120
   383.30         15.0574
   383.44         14.5352
   383.58         14.2908
   383.72         14.3501
   383.86         14.7146
   384.00         15.3596
   384.14         16.2407
   384.28         17.3025
   384.42         18.4795
   384.56         19.6982
   384.70         20.8877
   384.84         21.9898
   384.98         22.9667
   385.12         23.8031
   385.26         24.5051
   385.40         25.0917
   385.54         25.5867
   385.68         26.0139
   385.82         26.3926
   385.96         26.7319
   386.10         27.0299
   386.24         27.2787
   386.38         27.4673
   386.52         27.5816
   386.66         27.6037
   386.80         27.5139
   386.94         27.2935
   387.08         26.9281
   387.22         26.4114
   387.36         25.7432
   387.50         24.9267
   387.64         23.9684
   387.78         22.8814
   387.92         21.6917
   388.06         20.4405
   388.20         19.1807
   388.34         17.9725
   388.48         16.8773
   388.62         15.9534
   388.76         15.2547
   388.90         14.8250
   389.04         14.6903
   389.18         14.8552
   389.32         15.3015
   389.46         15.9930
   389.60         16.8841
   389.74         17.9248
   389.88         19.0599
   390.02         20.2342
   390.16         21.4007
   390.30         22.5235
   390.44         23.5804
   390.58         24.5593
   390.72         25.4545
   390.86         26.2622
   391.00         26.9775
   391.14         27.5987
   391.28         28.1301
   391.42         28.5763
   391.56         28.9402
   391.70         29.2245
   391.84         29.4264
   391.98         29.5327
   392.12         29.5204
   392.26         29.3671
   392.40         29.0642
   392.54         28.6248
   392.68         28.0883
   392.82         27.5105
   392.96         26.9517
   393.10         26.4697
   393.24         26.1116
   393.38         25.9107
   393.52         25.8816
   393.66         26.0179
   393.80         26.2952
   393.94         26.6710
   394.08         27.0881
   394.22         27.4862
   394.36         27.8078
   394.50         27.9985
   394.64         28.0166
   394.78         27.8466
   394.92         27.5019
   395.06         27.0135
   395.20         26.4131
   395.34         25.7211
   395.48         24.9396
   395.62         24.0567
   395.76         23.0597
   395.90         21.9466
   396.04         20.7361
   396.18         19.4689
   396.32         18.2036
   396.46         17.0096
   396.60         15.9585
   396.74         15.1174
   396.88         14.5415
   397.02         14.2670
   397.16         14.3068
   397.30         14.6544
   397.44         15.2873
   397.58         16.1642
   397.72         17.2294
   397.86         18.4193
   398.00         19.6670
   398.14         20.9098
   398.28         22.0973
   398.42         23.1979
   398.56         24.1984
   398.70         25.0965
   398.84         25.8949
   398.98         26.5981
   399.12         27.2120
   399.26         27.7426
   399.40         28.1963
   399.54         28.5823
   399.68         28.9116
   399.82         29.1946
   399.96         29.4417
   400.10         29.6630
   400.24         29.8650
   400.38         30.0525
   400.52         30.2309
   400.66         30.4051
   400.80         30.5778
   400.94         30.7505
   401.08         30.9220
   401.22         31.0869
   401.36         31.2378
   401.50         31.3678
   401.64         31.4713
   401.78         31.5432
   401.92         31.5771
   402.06         31.5691
   402.20         31.5227
   402.34         31.4458
   402.48         31.3505
   402.62         31.2536
   402.76         31.1726
   402.90         31.1196
   403.04         31.1003
   403.18         31.1143
   403.32         31.1531
   403.46         31.2035
   403.60         31.2527
   403.74         31.2883
   403.88         31.3028
   404.02         31.2949
   404.16         31.2676
   404.30         31.2274
   404.44         31.1790
   404.58         31.1262
   404.72         31.0769
   404.86         31.0390
   405.00         31.0138
   405.14         30.9936
   405.28         30.9669
   405.42         30.9215
   405.56         30.8444
   405.70         30.7261
   405.84         30.5649
   405.98         30.3653
   406.12         30.1368
   406.26         29.8872
   406.40         29.6199
   406.54         29.3356
   406.68         29.0325
   406.82         28.7099
   406.96         28.3704
   407.10         28.0170
   407.24         27.6546
   407.38         27.2867
   407.52         26.9134
   407.66         26.5353
   407.80         26.1542
   407.94         25.7695
   408.08         25.3738
   408.22         24.9545
   408.36         24.4984
   408.50         23.9923
   408.64         23.4203
   408.78         22.7636
   408.92         22.0044
   409.06         21.1354
   409.20         20.1668
   409.34         19.1278
   409.48         18.0652
   409.62         17.0367
   409.76         16.1033
   409.90         15.3233
   410.04         14.7471
   410.18         14.4153
   410.32         14.3545
   410.46         14.5688
   410.60         15.0404
   410.74         15.7369
   410.88         16.6144
   411.02         17.6176
   411.16         18.6836
   411.30         19.7514
   411.44         20.7686
   411.58         21.6961
   411.72         22.5132
   411.86         23.2166
   412.00         23.8143
   412.14         24.3200
   412.28         24.7485
   412.42         25.1158
   412.56         25.4364
   412.70         25.7255
   412.84         26.0018
   412.98         26.2797
   413.12         26.5626
   413.26         26.8460
   413.40         27.1229
   413.54         27.3867
   413.68         27.6297
   413.82         27.8461
   413.96         28.0343
   414.10         28.1949
   414.24         28.3300
   414.38         28.4420
   414.52         28.5294
   414.66         28.5896
   414.80         28.6227
   414.94         28.6313
   415.08         28.6205
   415.22         28.5974
   415.36         28.5720
   415.50         28.5562
   415.64         28.5570
   415.78         28.5761
   415.92         28.6126
   416.06         28.6646
   416.20         28.7274
   416.34         28.7923
   416.48         28.8493
   416.62         28.8863
   416.76         28.8888
   416.90         28.8460
   417.04         28.7542
   417.18         28.6187
   417.32         28.4574
   417.46         28.2920
   417.60         28.1382
   417.74         28.0075
   417.88         27.9118
   418.02         27.8608
   418.16         27.8578
   418.30         27.8978
   418.44         27.9691
   418.58         28.0576
   418.72         28.1488
   418.86         28.2288
   419.00         28.2852
   419.14         28.3100
   419.28         28.3015
   419.42         28.2648
   419.56         28.2118
   419.70         28.1559
   419.84         28.1085
   419.98         28.0768
   420.12         28.0626
   420.26         28.0655
   420.40         28.0879
   420.54         28.1295
   420.68         28.1835
   420.82         28.2405
   420.96         28.2910
   421.10         28.3245
   421.24         28.3331
   421.38         28.3151
   421.52         28.2708
   421.66         28.2025
   421.80         28.1172
   421.94         28.0234
   422.08         27.9279
   422.22         27.8352
   422.36         27.7467
   422.50         27.6617
   422.64         27.5812
   422.78         27.5095
   422.92         27.4524
   423.06         27.4150
   423.20         27.4014
   423.34         27.4146
   423.48         27.4524
   423.62         27.5056
   423.76         27.5613
   423.90         27.6074
   424.04         27.6343
   424.18         27.6351
   424.32         27.6088
   424.46         27.5606
   424.60         27.4972
   424.74         27.4254
   424.88         27.3500
   425.02         27.2744
   425.16         27.2027
   425.30         27.1409
   425.44         27.0964
   425.58         27.0742
   425.72         27.0743
   425.86         27.0911
   426.00         27.1123
   426.14         27.1231
   426.28         27.1102
   426.42         27.0665
   426.56         26.9943
   426.70         26.9038
   426.84         26.8069
   426.98         26.7131
   427.12         26.6282
   427.26         26.5565
   427.40         26.5015
   427.54         26.4652
   427.68         26.4485
   427.82         26.4511
   427.96         26.4687
   428.10         26.4930
   428.24         26.5129
   428.38         26.5170
   428.52         26.4956
   428.66         26.4419
   428.80         26.3543
   428.94         26.2359
   429.08         26.0924
   429.22         25.9297
   429.36         25.7523
   429.50         25.5628
   429.64         25.3628
   429.78         25.1540
   429.92         24.9427
   430.06         24.7387
   430.20         24.5481
   430.34         24.3724
   430.48         24.2112
   430.62         24.0644
   430.76         23.9326
   430.90         23.8129
   431.04         23.6973
   431.18         23.5756
   431.32         23.4404
   431.46         23.2860
   431.60         23.1043
   431.74         22.8893
   431.88         22.6390
   432.02         22.3517
   432.16         22.0233
   432.30         21.6487
   432.44         21.2219
   432.58         20.7364
   432.72         20.1826
   432.86         19.5481
   433.00         18.8256
   433.14         18.0210
   433.28         17.1560
   433.42         16.2651
   433.56         15.3920
   433.70         14.5870
   433.84         13.9023
   433.98         13.3830
   434.12         13.0591
   434.26         12.9479
   434.40         13.0591
   434.54         13.3874
   434.68         13.9094
   434.82         14.5886
   434.96         15.3808
   435.10         16.2389
   435.24         17.1177
   435.38         17.9809
   435.52         18.8049
   435.66         19.5777
   435.80         20.2953
   435.94         20.9575
   436.08         21.5650
   436.22         22.1167
   436.36         22.6073
   436.50         23.0311
   436.64         23.3847
   436.78         23.6708
   436.92         23.8989
   437.06         24.0780
   437.20         24.2113
   437.34         24.3012
   437.48         24.3535
   437.62         24.3772
   437.76         24.3843
   437.90         24.3870
   438.04         24.3972
   438.18         24.4224
   438.32         24.4638
   438.46         24.5186
   438.60         24.5838
   438.74         24.6576
   438.88         24.7367
   439.02         24.8168
   439.16         24.8957
   439.30         24.9718
   439.44         25.0409
   439.58         25.0976
   439.72         25.1389
   439.86         25.1680
   440.00         25.1928
   440.14         25.2216
   440.28         25.2599
   440.42         25.3044
   440.56         25.3467
   440.70         25.3792
   440.84         25.3996
   440.98         25.4085
   441.12         25.4070
   441.26         25.3989
   441.40         25.3902
   441.54         25.3844
   441.68         25.3846
   441.82         25.3946
   441.96         25.4161
   442.10         25.4464
   442.24         25.4825
   442.38         25.5238
   442.52         25.5669
   442.66         25.6050
   442.80         25.6325
   442.94         25.6472
   443.08         25.6504
   443.22         25.6459
   443.36         25.6374
   443.50         25.6273
   443.64         25.6134
   443.78         25.5938
   443.92         25.5722
   444.06         25.5534
   444.20         25.5389
   444.34         25.5283
   444.48         25.5217
   444.62         25.5167
   444.76         25.5099
   444.90         25.5015
   445.04         25.4930
   445.18         25.4838
   445.32         25.4721
   445.46         25.4542
   445.60         25.4244
   445.74         25.3737
   445.88         25.2939
   446.02         25.1861
   446.16         25.0596
   446.30         24.9263
   446.44         24.7980
   446.58         24.6856
   446.72         24.5954
   446.86         24.5265
   447.00         24.4734
   447.14         24.4318
   447.28         24.3997
   447.42         24.3779
   447.56         24.3668
   447.70         24.3635
   447.84         24.3638
   447.98         24.3623
   448.12         24.3546
   448.26         24.3402
   448.40         24.3234
   448.54         24.3128
   448.68         24.3174
   448.82         24.3415
   448.96         24.3848
   449.10         24.4452
   449.24         24.5169
   449.38         24.5907
   449.52         24.6585
   449.66         24.7176
   449.80         24.7691
   449.94         24.8130
   450.08         24.8456
   450.22         24.8597
   450.36         24.8513
   450.50         24.8198
   450.64         24.7665
   450.78         24.6944
   450.92         24.6067
   451.06         24.5068
   451.20         24.3984
   451.34         24.2861
   451.48         24.1763
   451.62         24.0767
   451.76         23.9927
   451.90         23.9251
   452.04         23.8711
   452.18         23.8260
   452.32         23.7852
   452.46         23.7462
   452.60         23.7113
   452.74         23.6837
   452.88         23.6637
   453.02         23.6518
   453.16         23.6504
   453.30         23.6607
   453.44         23.6816
   453.58         23.7086
   453.72         23.7337
   453.86         23.7486
   454.00         23.7477
   454.14         23.7261
   454.28         23.6793
   454.42         23.6049
   454.56         23.5043
   454.70         23.3852
   454.84         23.2642
   454.98         23.1596
   455.12         23.0839
   455.26         23.0443
   455.40         23.0423
   455.54         23.0740
   455.68         23.1349
   455.82         23.2180
   455.96         23.3111
   456.10         23.4004
   456.24         23.4744
   456.38         23.5255
   456.52         23.5513
   456.66         23.5530
   456.80         23.5324
   456.94         23.4929
