# File HD12323
# Wavelength [nm]    Normalized Amplitude
   349.70         84.1185
   349.84         84.3854
   349.98         84.5974
   350.12         84.7528
   350.26         84.8550
   350.40         84.9114
   350.54         84.9322
   350.68         84.9298
   350.82         84.9177
   350.96         84.9059
   351.10         84.9010
   351.24         84.9059
   351.38         84.9177
   351.52         84.9298
   351.66         84.9322
   351.80         84.9114
   351.94         84.8550
   352.08         84.7528
   352.22         84.5974
   352.36         84.3854
   352.50         84.1185
   352.64         83.8007
   352.78         83.4409
   352.92         83.0577
   353.06         82.6759
   353.20         82.3174
   353.34         81.9982
   353.48         81.7275
   353.62         81.5035
   353.76         81.3177
   353.90         81.1633
   354.04         81.0377
   354.18         80.9360
   354.32         80.8442
   354.46         80.7443
   354.60         80.6211
   354.74         80.4625
   354.88         80.2614
   355.02         80.0181
   355.16         79.7391
   355.30         79.4363
   355.44         79.1288
   355.58         78.8376
   355.72         78.5767
   355.86         78.3472
   356.00         78.1419
   356.14         77.9491
   356.28         77.7556
   356.42         77.5541
   356.56         77.3421
   356.70         77.1114
   356.84         76.8478
   356.98         76.5406
   357.12         76.1910
   357.26         75.8068
   357.40         75.3914
   357.54         74.9442
   357.68         74.4683
   357.82         73.9763
   357.96         73.4874
   358.10         73.0217
   358.24         72.5985
   358.38         72.2308
   358.52         71.9249
   358.66         71.6861
   358.80         71.5189
   358.94         71.4265
   359.08         71.4092
   359.22         71.4617
   359.36         71.5730
   359.50         71.7302
   359.64         71.9163
   359.78         72.1071
   359.92         72.2735
   360.06         72.3899
   360.20         72.4448
   360.34         72.4419
   360.48         72.3912
   360.62         72.3024
   360.76         72.1856
   360.90         72.0516
   361.04         71.9099
   361.18         71.7714
   361.32         71.6489
   361.46         71.5535
   361.60         71.4911
   361.74         71.4578
   361.88         71.4405
   362.02         71.4233
   362.16         71.3911
   362.30         71.3328
   362.44         71.2422
   362.58         71.1204
   362.72         70.9743
   362.86         70.8119
   363.00         70.6401
   363.14         70.4669
   363.28         70.3046
   363.42         70.1678
   363.56         70.0733
   363.70         70.0358
   363.84         70.0642
   363.98         70.1609
   364.12         70.3217
   364.26         70.5343
   364.40         70.7818
   364.54         71.0481
   364.68         71.3185
   364.82         71.5786
   364.96         71.8126
   365.10         72.0033
   365.24         72.1380
   365.38         72.2113
   365.52         72.2216
   365.66         72.1713
   365.80         72.0705
   365.94         71.9340
   366.08         71.7752
   366.22         71.6066
   366.36         71.4384
   366.50         71.2791
   366.64         71.1359
   366.78         71.0135
   366.92         70.9125
   367.06         70.8326
   367.20         70.7714
   367.34         70.7231
   367.48         70.6789
   367.62         70.6303
   367.76         70.5752
   367.90         70.5170
   368.04         70.4585
   368.18         70.4003
   368.32         70.3432
   368.46         70.2890
   368.60         70.2359
   368.74         70.1783
   368.88         70.1099
   369.02         70.0241
   369.16         69.9122
   369.30         69.7625
   369.44         69.5616
   369.58         69.3011
   369.72         68.9806
   369.86         68.6063
   370.00         68.1909
   370.14         67.7551
   370.28         67.3266
   370.42         66.9329
   370.56         66.5943
   370.70         66.3251
   370.84         66.1348
   370.98         66.0249
   371.12         65.9895
   371.26         66.0180
   371.40         66.0961
   371.54         66.2070
   371.68         66.3295
   371.82         66.4371
   371.96         66.5046
   372.10         66.5182
   372.24         66.4738
   372.38         66.3722
   372.52         66.2190
   372.66         66.0301
   372.80         65.8329
   372.94         65.6593
   373.08         65.5365
   373.22         65.4819
   373.36         65.4994
   373.50         65.5754
   373.64         65.6834
   373.78         65.7880
   373.92         65.8442
   374.06         65.8012
   374.20         65.6210
   374.34         65.2945
   374.48         64.8412
   374.62         64.3013
   374.76         63.7280
   374.90         63.1783
   375.04         62.7071
   375.18         62.3633
   375.32         62.1823
   375.46         62.1734
   375.60         62.3085
   375.74         62.5282
   375.88         62.7585
   376.02         62.9257
   376.16         62.9718
   376.30         62.8696
   376.44         62.6272
   376.58         62.2886
   376.72         61.9294
   376.86         61.6457
   377.00         61.5303
   377.14         61.6473
   377.28         62.0232
   377.42         62.6496
   377.56         63.4879
   377.70         64.4748
   377.84         65.5282
   377.98         66.5531
   378.12         67.4471
   378.26         68.1126
   378.40         68.4710
   378.54         68.4731
   378.68         68.1099
   378.82         67.4205
   378.96         66.4853
   379.10         65.4118
   379.24         64.3194
   379.38         63.3254
   379.52         62.5335
   379.66         62.0223
   379.80         61.8358
   379.94         61.9833
   380.08         62.4434
   380.22         63.1669
   380.36         64.0775
   380.50         65.0743
   380.64         66.0423
   380.78         66.8731
   380.92         67.4885
   381.06         67.8535
   381.20         67.9802
   381.34         67.9188
   381.48         67.7368
   381.62         67.4960
   381.76         67.2389
   381.90         66.9829
   382.04         66.7194
   382.18         66.4137
   382.32         66.0167
   382.46         65.4854
   382.60         64.8030
   382.74         63.9864
   382.88         63.0829
   383.02         62.1592
   383.16         61.2940
   383.30         60.5725
   383.44         60.0778
   383.58         59.8736
   383.72         59.9899
   383.86         60.4187
   384.00         61.1161
   384.14         62.0100
   384.28         63.0091
   384.42         64.0159
   384.56         64.9431
   384.70         65.7236
   384.84         66.3177
   384.98         66.7192
   385.12         66.9519
   385.26         67.0560
   385.40         67.0714
   385.54         67.0261
   385.68         66.9357
   385.82         66.8091
   385.96         66.6542
   386.10         66.4815
   386.24         66.3025
   386.38         66.1266
   386.52         65.9573
   386.66         65.7906
   386.80         65.6180
   386.94         65.4276
   387.08         65.2030
   387.22         64.9220
   387.36         64.5538
   387.50         64.0588
   387.64         63.3990
   387.78         62.5546
   387.92         61.5357
   388.06         60.3853
   388.20         59.1755
   388.34         57.9977
   388.48         56.9485
   388.62         56.1165
   388.76         55.5740
   388.90         55.3685
   389.04         55.5165
   389.18         56.0015
   389.32         56.7754
   389.46         57.7629
   389.60         58.8694
   389.74         59.9945
   389.88         61.0477
   390.02         61.9587
   390.16         62.6841
   390.30         63.2121
   390.44         63.5576
   390.58         63.7478
   390.72         63.8116
   390.86         63.7720
   391.00         63.6446
   391.14         63.4391
   391.28         63.1649
   391.42         62.8343
   391.56         62.4613
   391.70         62.0595
   391.84         61.6414
   391.98         61.2180
   392.12         60.7989
   392.26         60.3944
   392.40         60.0173
   392.54         59.6827
   392.68         59.4039
   392.82         59.1904
   392.96         59.0497
   393.10         58.9883
   393.24         59.0084
   393.38         59.1038
   393.52         59.2612
   393.66         59.4634
   393.80         59.6896
   393.94         59.9172
   394.08         60.1259
   394.22         60.2969
   394.36         60.4140
   394.50         60.4658
   394.64         60.4463
   394.78         60.3559
   394.92         60.1979
   395.06         59.9722
   395.20         59.6717
   395.34         59.2810
   395.48         58.7750
   395.62         58.1213
   395.76         57.2894
   395.90         56.2652
   396.04         55.0680
   396.18         53.7547
   396.32         52.4104
   396.46         51.1358
   396.60         50.0352
   396.74         49.2042
   396.88         48.7154
   397.02         48.6083
   397.16         48.8855
   397.30         49.5133
   397.44         50.4254
   397.58         51.5323
   397.72         52.7340
   397.86         53.9320
   398.00         55.0378
   398.14         55.9801
   398.28         56.7128
   398.42         57.2230
   398.56         57.5307
   398.70         57.6766
   398.84         57.7057
   398.98         57.6579
   399.12         57.5638
   399.26         57.4433
   399.40         57.3082
   399.54         57.1627
   399.68         57.0048
   399.82         56.8337
   399.96         56.6532
   400.10         56.4692
   400.24         56.2886
   400.38         56.1196
   400.52         55.9686
   400.66         55.8375
   400.80         55.7237
   400.94         55.6208
   401.08         55.5176
   401.22         55.3950
   401.36         55.2265
   401.50         54.9862
   401.64         54.6591
   401.78         54.2483
   401.92         53.7759
   402.06         53.2770
   402.20         52.7907
   402.34         52.3561
   402.48         52.0129
   402.62         51.7942
   402.76         51.7170
   402.90         51.7807
   403.04         51.9699
   403.18         52.2548
   403.32         52.5971
   403.46         52.9572
   403.60         53.3008
   403.74         53.6021
   403.88         53.8472
   404.02         54.0365
   404.16         54.1824
   404.30         54.3033
   404.44         54.4165
   404.58         54.5309
   404.72         54.6463
   404.86         54.7569
   405.00         54.8570
   405.14         54.9440
   405.28         55.0162
   405.42         55.0701
   405.56         55.1011
   405.70         55.1053
   405.84         55.0796
   405.98         55.0228
   406.12         54.9359
   406.26         54.8199
   406.40         54.6748
   406.54         54.5011
   406.68         54.3028
   406.82         54.0871
   406.96         53.8633
   407.10         53.6421
   407.24         53.4345
   407.38         53.2482
   407.52         53.0844
   407.66         52.9368
   407.80         52.7955
   407.94         52.6498
   408.08         52.4883
   408.22         52.2983
   408.36         52.0652
   408.50         51.7699
   408.64         51.3881
   408.78         50.8921
   408.92         50.2567
   409.06         49.4681
   409.20         48.5341
   409.34         47.4909
   409.48         46.4006
   409.62         45.3440
   409.76         44.4084
   409.90         43.6733
   410.04         43.1968
   410.18         43.0106
   410.32         43.1212
   410.46         43.5099
   410.60         44.1319
   410.74         44.9187
   410.88         45.7868
   411.02         46.6496
   411.16         47.4318
   411.30         48.0812
   411.44         48.5768
   411.58         48.9278
   411.72         49.1671
   411.86         49.3391
   412.00         49.4872
   412.14         49.6411
   412.28         49.8140
   412.42         50.0046
   412.56         50.1996
   412.70         50.3774
   412.84         50.5153
   412.98         50.5927
   413.12         50.5937
   413.26         50.5105
   413.40         50.3459
   413.54         50.1134
   413.68         49.8374
   413.82         49.5494
   413.96         49.2801
   414.10         49.0543
   414.24         48.8886
   414.38         48.7934
   414.52         48.7732
   414.66         48.8258
   414.80         48.9408
   414.94         49.1011
   415.08         49.2846
   415.22         49.4663
   415.36         49.6218
   415.50         49.7299
   415.64         49.7737
   415.78         49.7449
   415.92         49.6466
   416.06         49.4897
   416.20         49.2896
   416.34         49.0630
   416.48         48.8258
   416.62         48.5921
   416.76         48.3744
   416.90         48.1831
   417.04         48.0253
   417.18         47.9035
   417.32         47.8172
   417.46         47.7644
   417.60         47.7422
   417.74         47.7451
   417.88         47.7650
   418.02         47.7912
   418.16         47.8108
   418.30         47.8123
   418.44         47.7887
   418.58         47.7351
   418.72         47.6465
   418.86         47.5199
   419.00         47.3590
   419.14         47.1739
   419.28         46.9778
   419.42         46.7847
   419.56         46.6097
   419.70         46.4667
   419.84         46.3679
   419.98         46.3216
   420.12         46.3267
   420.26         46.3733
   420.40         46.4476
   420.54         46.5351
   420.68         46.6213
   420.82         46.6939
   420.96         46.7463
   421.10         46.7760
   421.24         46.7840
   421.38         46.7741
   421.52         46.7544
   421.66         46.7349
   421.80         46.7229
   421.94         46.7208
   422.08         46.7272
   422.22         46.7383
   422.36         46.7479
   422.50         46.7501
   422.64         46.7379
   422.78         46.7038
   422.92         46.6440
   423.06         46.5598
   423.20         46.4560
   423.34         46.3386
   423.48         46.2143
   423.62         46.0889
   423.76         45.9677
   423.90         45.8562
   424.04         45.7594
   424.18         45.6810
   424.32         45.6228
   424.46         45.5844
   424.60         45.5626
   424.74         45.5514
   424.88         45.5425
   425.02         45.5289
   425.16         45.5062
   425.30         45.4717
   425.44         45.4230
   425.58         45.3608
   425.72         45.2899
   425.86         45.2165
   426.00         45.1457
   426.14         45.0817
   426.28         45.0279
   426.42         44.9881
   426.56         44.9652
   426.70         44.9593
   426.84         44.9677
   426.98         44.9872
   427.12         45.0151
   427.26         45.0490
   427.40         45.0855
   427.54         45.1211
   427.68         45.1530
   427.82         45.1773
   427.96         45.1883
   428.10         45.1805
   428.24         45.1525
   428.38         45.1063
   428.52         45.0446
   428.66         44.9715
   428.80         44.8919
   428.94         44.8103
   429.08         44.7293
   429.22         44.6488
   429.36         44.5681
   429.50         44.4872
   429.64         44.4077
   429.78         44.3319
   429.92         44.2611
   430.06         44.1953
   430.20         44.1339
   430.34         44.0761
   430.48         44.0197
   430.62         43.9619
   430.76         43.9013
   430.90         43.8370
   431.04         43.7689
   431.18         43.6965
   431.32         43.6176
   431.46         43.5285
   431.60         43.4251
   431.74         43.3054
   431.88         43.1702
   432.02         43.0210
   432.16         42.8570
   432.30         42.6724
   432.44         42.4531
   432.58         42.1750
   432.72         41.8067
   432.86         41.3198
   433.00         40.7007
   433.14         39.9598
   433.28         39.1322
   433.42         38.2716
   433.56         37.4411
   433.70         36.7046
   433.84         36.1183
   433.98         35.7261
   434.12         35.5577
   434.26         35.6259
   434.40         35.9238
   434.54         36.4245
   434.68         37.0823
   434.82         37.8389
   434.96         38.6304
   435.10         39.3933
   435.24         40.0758
   435.38         40.6473
   435.52         41.0998
   435.66         41.4413
   435.80         41.6864
   435.94         41.8484
   436.08         41.9383
   436.22         41.9667
   436.36         41.9443
   436.50         41.8821
   436.64         41.7907
   436.78         41.6806
   436.92         41.5603
   437.06         41.4363
   437.20         41.3136
   437.34         41.1917
   437.48         41.0638
   437.62         40.9197
   437.76         40.7515
   437.90         40.5598
   438.04         40.3537
   438.18         40.1469
   438.32         39.9544
   438.46         39.7910
   438.60         39.6690
   438.74         39.5975
   438.88         39.5793
   439.02         39.6104
   439.16         39.6822
   439.30         39.7832
   439.44         39.9002
   439.58         40.0198
   439.72         40.1290
   439.86         40.2153
   440.00         40.2677
   440.14         40.2808
   440.28         40.2582
   440.42         40.2099
   440.56         40.1476
   440.70         40.0796
   440.84         40.0095
   440.98         39.9379
   441.12         39.8643
   441.26         39.7885
   441.40         39.7118
   441.54         39.6372
   441.68         39.5680
   441.82         39.5056
   441.96         39.4471
   442.10         39.3870
   442.24         39.3186
   442.38         39.2364
   442.52         39.1363
   442.66         39.0166
   442.80         38.8795
   442.94         38.7321
   443.08         38.5849
   443.22         38.4501
   443.36         38.3391
   443.50         38.2605
   443.64         38.2192
   443.78         38.2164
   443.92         38.2498
   444.06         38.3137
   444.20         38.3974
   444.34         38.4857
   444.48         38.5614
   444.62         38.6106
   444.76         38.6261
   444.90         38.6079
   445.04         38.5610
   445.18         38.4918
   445.32         38.4068
   445.46         38.3115
   445.60         38.2057
   445.74         38.0798
   445.88         37.9167
   446.02         37.7002
   446.16         37.4234
   446.30         37.0925
   446.44         36.7252
   446.58         36.3461
   446.72         35.9821
   446.86         35.6607
   447.00         35.4071
   447.14         35.2423
   447.28         35.1809
   447.42         35.2292
   447.56         35.3827
   447.70         35.6248
   447.84         35.9280
   447.98         36.2585
   448.12         36.5822
   448.26         36.8696
   448.40         37.1017
   448.54         37.2735
   448.68         37.3937
   448.82         37.4789
   448.96         37.5452
   449.10         37.6035
   449.24         37.6568
   449.38         37.7026
   449.52         37.7363
   449.66         37.7525
   449.80         37.7446
   449.94         37.7060
   450.08         37.6307
   450.22         37.5142
   450.36         37.3551
   450.50         37.1591
   450.64         36.9407
   450.78         36.7193
   450.92         36.5138
   451.06         36.3396
   451.20         36.2075
   451.34         36.1239
   451.48         36.0892
   451.62         36.0966
   451.76         36.1334
   451.90         36.1839
   452.04         36.2336
   452.18         36.2692
   452.32         36.2792
   452.46         36.2555
   452.60         36.1955
   452.74         36.0994
   452.88         35.9683
   453.02         35.8070
   453.16         35.6244
   453.30         35.4314
   453.44         35.2395
   453.58         35.0608
   453.72         34.9063
   453.86         34.7833
   454.00         34.6960
   454.14         34.6464
   454.28         34.6361
   454.42         34.6655
   454.56         34.7343
   454.70         34.8397
   454.84         34.9759
   454.98         35.1338
   455.12         35.3031
   455.26         35.4710
   455.40         35.6235
   455.54         35.7488
   455.68         35.8401
   455.82         35.8957
   455.96         35.9163
   456.10         35.9047
   456.24         35.8645
   456.38         35.7990
   456.52         35.7133
   456.66         35.6153
   456.80         35.5145
   456.94         35.4196
