# File HD12727
# Wavelength [nm]    Normalized Amplitude
   349.70         102.3028
   349.84         102.4769
   349.98         102.6178
   350.12         102.7328
   350.26         102.8253
   350.40         102.9000
   350.54         102.9655
   350.68         103.0288
   350.82         103.0881
   350.96         103.1314
   351.10         103.1469
   351.24         103.1314
   351.38         103.0881
   351.52         103.0288
   351.66         102.9655
   351.80         102.9000
   351.94         102.8253
   352.08         102.7328
   352.22         102.6178
   352.36         102.4769
   352.50         102.3028
   352.64         102.0882
   352.78         101.8355
   352.92         101.5619
   353.06         101.2985
   353.20         101.0803
   353.34         100.9319
   353.48         100.8592
   353.62         100.8561
   353.76         100.9112
   353.90         101.0080
   354.04         101.1254
   354.18         101.2390
   354.32         101.3201
   354.46         101.3404
   354.60         101.2797
   354.74         101.1298
   354.88         100.8952
   355.02         100.5879
   355.16         100.2248
   355.30         99.8284
   355.44         99.4231
   355.58         99.0261
   355.72         98.6405
   355.86         98.2587
   356.00         97.8670
   356.14         97.4538
   356.28         97.0147
   356.42         96.5505
   356.56         96.0650
   356.70         95.5627
   356.84         95.0482
   356.98         94.5283
   357.12         94.0101
   357.26         93.4997
   357.40         92.9980
   357.54         92.4981
   357.68         91.9879
   357.82         91.4587
   357.96         90.9139
   358.10         90.3693
   358.24         89.8490
   358.38         89.3788
   358.52         88.9839
   358.66         88.6831
   358.80         88.4800
   358.94         88.3696
   359.08         88.3485
   359.22         88.4133
   359.36         88.5570
   359.50         88.7668
   359.64         89.0212
   359.78         89.2957
   359.92         89.5667
   360.06         89.8100
   360.20         90.0067
   360.34         90.1506
   360.48         90.2493
   360.62         90.3155
   360.76         90.3566
   360.90         90.3747
   361.04         90.3680
   361.18         90.3305
   361.32         90.2566
   361.46         90.1492
   361.60         90.0243
   361.74         89.9018
   361.88         89.7944
   362.02         89.6987
   362.16         89.5972
   362.30         89.4688
   362.44         89.2959
   362.58         89.0637
   362.72         88.7628
   362.86         88.3993
   363.00         87.9942
   363.14         87.5789
   363.28         87.1941
   363.42         86.8852
   363.56         86.6949
   363.70         86.6493
   363.84         86.7532
   363.98         86.9951
   364.12         87.3504
   364.26         87.7812
   364.40         88.2384
   364.54         88.6665
   364.68         89.0185
   364.82         89.2738
   364.96         89.4328
   365.10         89.5000
   365.24         89.4809
   365.38         89.3846
   365.52         89.2274
   365.66         89.0283
   365.80         88.8030
   365.94         88.5644
   366.08         88.3188
   366.22         88.0646
   366.36         87.7964
   366.50         87.5103
   366.64         87.2085
   366.78         86.9003
   366.92         86.6024
   367.06         86.3334
   367.20         86.1103
   367.34         85.9489
   367.48         85.8532
   367.62         85.8107
   367.76         85.8071
   367.90         85.8355
   368.04         85.8940
   368.18         85.9813
   368.32         86.0899
   368.46         86.2008
   368.60         86.2916
   368.74         86.3391
   368.88         86.3231
   369.02         86.2333
   369.16         86.0658
   369.30         85.8149
   369.44         85.4791
   369.58         85.0697
   369.72         84.6052
   369.86         84.1075
   370.00         83.6006
   370.14         83.1077
   370.28         82.6561
   370.42         82.2785
   370.56         82.0021
   370.70         81.8364
   370.84         81.7706
   370.98         81.7771
   371.12         81.8230
   371.26         81.8842
   371.40         81.9482
   371.54         82.0095
   371.68         82.0643
   371.82         82.1052
   371.96         82.1244
   372.10         82.1189
   372.24         82.0849
   372.38         82.0170
   372.52         81.9208
   372.66         81.8204
   372.80         81.7512
   372.94         81.7475
   373.08         81.8336
   373.22         82.0164
   373.36         82.2810
   373.50         82.5933
   373.64         82.9012
   373.78         83.1394
   373.92         83.2395
   374.06         83.1435
   374.20         82.8233
   374.34         82.2974
   374.48         81.6263
   374.62         80.8977
   374.76         80.2151
   374.90         79.6898
   375.04         79.4228
   375.18         79.4817
   375.32         79.8787
   375.46         80.5570
   375.60         81.3944
   375.74         82.2266
   375.88         82.8787
   376.02         83.2006
   376.16         83.1027
   376.30         82.5808
   376.44         81.7218
   376.58         80.6862
   376.72         79.6767
   376.86         78.8990
   377.00         78.5234
   377.14         78.6560
   377.28         79.3265
   377.42         80.4949
   377.56         82.0637
   377.70         83.8906
   377.84         85.8049
   377.98         87.6252
   378.12         89.1705
   378.26         90.2776
   378.40         90.8240
   378.54         90.7467
   378.68         90.0545
   378.82         88.8291
   378.96         87.2134
   379.10         85.3870
   379.24         83.5428
   379.38         81.8699
   379.52         80.5377
   379.66         79.6840
   379.80         79.4020
   379.94         79.7266
   380.08         80.6336
   380.22         82.0421
   380.36         83.8124
   380.50         85.7530
   380.64         87.6450
   380.78         89.2809
   380.92         90.5113
   381.06         91.2749
   381.20         91.5991
   381.34         91.5737
   381.48         91.3132
   381.62         90.9214
   381.76         90.4673
   381.90         89.9757
   382.04         89.4278
   382.18         88.7702
   382.32         87.9375
   382.46         86.8788
   382.60         85.5823
   382.74         84.0906
   382.88         82.4926
   383.02         80.9075
   383.16         79.4760
   383.30         78.3547
   383.44         77.6965
   383.58         77.6165
   383.72         78.1572
   383.86         79.2766
   384.00         80.8614
   384.14         82.7543
   384.28         84.7812
   384.42         86.7725
   384.56         88.5828
   384.70         90.1088
   384.84         91.3030
   384.98         92.1732
   385.12         92.7654
   385.26         93.1416
   385.40         93.3568
   385.54         93.4455
   385.68         93.4266
   385.82         93.3127
   385.96         93.1155
   386.10         92.8429
   386.24         92.4976
   386.38         92.0818
   386.52         91.6040
   386.66         91.0775
   386.80         90.5130
   386.94         89.9093
   387.08         89.2473
   387.22         88.4885
   387.36         87.5779
   387.50         86.4509
   387.64         85.0506
   387.78         83.3512
   387.92         81.3785
   388.06         79.2182
   388.20         77.0070
   388.34         74.9084
   388.48         73.0883
   388.62         71.6968
   388.76         70.8507
   388.90         70.6223
   389.04         71.0332
   389.18         72.0499
   389.32         73.5837
   389.46         75.4968
   389.60         77.6195
   389.74         79.7745
   389.88         81.7982
   390.02         83.5621
   390.16         84.9917
   390.30         86.0735
   390.44         86.8373
   390.58         87.3287
   390.72         87.5942
   390.86         87.6730
   391.00         87.5975
   391.14         87.3968
   391.28         87.0965
   391.42         86.7179
   391.56         86.2808
   391.70         85.8081
   391.84         85.3233
   391.98         84.8389
   392.12         84.3566
   392.26         83.8802
   392.40         83.4253
   392.54         83.0160
   392.68         82.6773
   392.82         82.4287
   392.96         82.2774
   393.10         82.2197
   393.24         82.2479
   393.38         82.3562
   393.52         82.5380
   393.66         82.7794
   393.80         83.0546
   393.94         83.3321
   394.08         83.5829
   394.22         83.7797
   394.36         83.8954
   394.50         83.9036
   394.64         83.7853
   394.78         83.5389
   394.92         83.1768
   395.06         82.7079
   395.20         82.1235
   395.34         81.3949
   395.48         80.4766
   395.62         79.3137
   395.76         77.8633
   395.90         76.1147
   396.04         74.1042
   396.18         71.9188
   396.32         69.6897
   396.46         67.5764
   396.60         65.7431
   396.74         64.3348
   396.88         63.4628
   397.02         63.1979
   397.16         63.5623
   397.30         64.5186
   397.44         65.9705
   397.58         67.7770
   397.72         69.7750
   397.86         71.7995
   398.00         73.7008
   398.14         75.3613
   398.28         76.7133
   398.42         77.7441
   398.56         78.4834
   398.70         78.9845
   398.84         79.3079
   398.98         79.5091
   399.12         79.6295
   399.26         79.6918
   399.40         79.7046
   399.54         79.6676
   399.68         79.5725
   399.82         79.4085
   399.96         79.1733
   400.10         78.8807
   400.24         78.5584
   400.38         78.2374
   400.52         77.9437
   400.66         77.6964
   400.80         77.5078
   400.94         77.3777
   401.08         77.2866
   401.22         77.1931
   401.36         77.0437
   401.50         76.7898
   401.64         76.4059
   401.78         75.8948
   401.92         75.2823
   402.06         74.6125
   402.20         73.9435
   402.34         73.3416
   402.48         72.8764
   402.62         72.6070
   402.76         72.5654
   402.90         72.7497
   403.04         73.1266
   403.18         73.6400
   403.32         74.2226
   403.46         74.8048
   403.60         75.3221
   403.74         75.7242
   403.88         75.9860
   404.02         76.1143
   404.16         76.1420
   404.30         76.1131
   404.44         76.0665
   404.58         76.0272
   404.72         76.0079
   404.86         76.0114
   405.00         76.0344
   405.14         76.0705
   405.28         76.1104
   405.42         76.1422
   405.56         76.1525
   405.70         76.1288
   405.84         76.0617
   405.98         75.9445
   406.12         75.7710
   406.26         75.5354
   406.40         75.2356
   406.54         74.8771
   406.68         74.4751
   406.82         74.0527
   406.96         73.6357
   407.10         73.2456
   407.24         72.8954
   407.38         72.5903
   407.52         72.3313
   407.66         72.1155
   407.80         71.9336
   407.94         71.7686
   408.08         71.5946
   408.22         71.3793
   408.36         71.0862
   408.50         70.6753
   408.64         70.1026
   408.78         69.3253
   408.92         68.3123
   409.06         67.0569
   409.20         65.5884
   409.34         63.9737
   409.48         62.3085
   409.62         60.7057
   409.76         59.2827
   409.90         58.1482
   410.04         57.3901
   410.18         57.0659
   410.32         57.1958
   410.46         57.7582
   410.60         58.6874
   410.74         59.8792
   410.88         61.2069
   411.02         62.5422
   411.16         63.7750
   411.30         64.8273
   411.44         65.6612
   411.58         66.2779
   411.72         66.7091
   411.86         67.0039
   412.00         67.2137
   412.14         67.3812
   412.28         67.5379
   412.42         67.7017
   412.56         67.8746
   412.70         68.0453
   412.84         68.1915
   412.98         68.2824
   413.12         68.2842
   413.26         68.1699
   413.40         67.9341
   413.54         67.5988
   413.68         67.2046
   413.82         66.7972
   413.96         66.4185
   414.10         66.1035
   414.24         65.8801
   414.38         65.7685
   414.52         65.7788
   414.66         65.9097
   414.80         66.1480
   414.94         66.4684
   415.08         66.8356
   415.22         67.2087
   415.36         67.5467
   415.50         67.8149
   415.64         67.9901
   415.78         68.0667
   415.92         68.0567
   416.06         67.9814
   416.20         67.8619
   416.34         67.7152
   416.48         67.5558
   416.62         67.3967
   416.76         67.2493
   416.90         67.1232
   417.04         67.0240
   417.18         66.9518
   417.32         66.9036
   417.46         66.8746
   417.60         66.8557
   417.74         66.8354
   417.88         66.8022
   418.02         66.7469
   418.16         66.6643
   418.30         66.5540
   418.44         66.4204
   418.58         66.2713
   418.72         66.1157
   418.86         65.9636
   419.00         65.8239
   419.14         65.7023
   419.28         65.6019
   419.42         65.5244
   419.56         65.4701
   419.70         65.4369
   419.84         65.4218
   419.98         65.4229
   420.12         65.4351
   420.26         65.4474
   420.40         65.4480
   420.54         65.4293
   420.68         65.3883
   420.82         65.3254
   420.96         65.2448
   421.10         65.1546
   421.24         65.0651
   421.38         64.9850
   421.52         64.9182
   421.66         64.8650
   421.80         64.8243
   421.94         64.7928
   422.08         64.7648
   422.22         64.7327
   422.36         64.6875
   422.50         64.6185
   422.64         64.5135
   422.78         64.3629
   422.92         64.1649
   423.06         63.9256
   423.20         63.6566
   423.34         63.3745
   423.48         63.1009
   423.62         62.8563
   423.76         62.6576
   423.90         62.5138
   424.04         62.4245
   424.18         62.3803
   424.32         62.3674
   424.46         62.3724
   424.60         62.3849
   424.74         62.3971
   424.88         62.4012
   425.02         62.3885
   425.16         62.3508
   425.30         62.2828
   425.44         62.1824
   425.58         62.0505
   425.72         61.8949
   425.86         61.7304
   426.00         61.5742
   426.14         61.4360
   426.28         61.3162
   426.42         61.2107
   426.56         61.1147
   426.70         61.0251
   426.84         60.9413
   426.98         60.8641
   427.12         60.7944
   427.26         60.7327
   427.40         60.6790
   427.54         60.6334
   427.68         60.5972
   427.82         60.5726
   427.96         60.5619
   428.10         60.5674
   428.24         60.5926
   428.38         60.6407
   428.52         60.7098
   428.66         60.7932
   428.80         60.8807
   428.94         60.9615
   429.08         61.0244
   429.22         61.0592
   429.36         61.0574
   429.50         61.0142
   429.64         60.9278
   429.78         60.8007
   429.92         60.6398
   430.06         60.4550
   430.20         60.2564
   430.34         60.0509
   430.48         59.8415
   430.62         59.6298
   430.76         59.4202
   430.90         59.2198
   431.04         59.0373
   431.18         58.8786
   431.32         58.7425
   431.46         58.6205
   431.60         58.4983
   431.74         58.3600
   431.88         58.1915
   432.02         57.9792
   432.16         57.7083
   432.30         57.3597
   432.44         56.9089
   432.58         56.3265
   432.72         55.5817
   432.86         54.6516
   433.00         53.5344
   433.14         52.2608
   433.28         50.8936
   433.42         49.5170
   433.56         48.2230
   433.70         47.0994
   433.84         46.2204
   433.98         45.6431
   434.12         45.4060
   434.26         45.5236
   434.40         45.9835
   434.54         46.7478
   434.68         47.7554
   434.82         48.9260
   434.96         50.1686
   435.10         51.3916
   435.24         52.5176
   435.38         53.4936
   435.52         54.2966
   435.66         54.9280
   435.80         55.4025
   435.94         55.7387
   436.08         55.9583
   436.22         56.0859
   436.36         56.1480
   436.50         56.1710
   436.64         56.1796
   436.78         56.1936
   436.92         56.2247
   437.06         56.2764
   437.20         56.3415
   437.34         56.3978
   437.48         56.4120
   437.62         56.3528
   437.76         56.2037
   437.90         55.9666
   438.04         55.6573
   438.18         55.3016
   438.32         54.9313
   438.46         54.5814
   438.60         54.2863
   438.74         54.0752
   438.88         53.9663
   439.02         53.9639
   439.16         54.0581
   439.30         54.2281
   439.44         54.4466
   439.58         54.6823
   439.72         54.9036
   439.86         55.0830
   440.00         55.1994
   440.14         55.2417
   440.28         55.2113
   440.42         55.1173
   440.56         54.9692
   440.70         54.7753
   440.84         54.5463
   440.98         54.2958
   441.12         54.0383
   441.26         53.7855
   441.40         53.5462
   441.54         53.3275
   441.68         53.1350
   441.82         52.9715
   441.96         52.8379
   442.10         52.7337
   442.24         52.6550
   442.38         52.5934
   442.52         52.5368
   442.66         52.4726
   442.80         52.3961
   442.94         52.3125
   443.08         52.2333
   443.22         52.1705
   443.36         52.1335
   443.50         52.1268
   443.64         52.1506
   443.78         52.2021
   443.92         52.2759
   444.06         52.3661
   444.20         52.4666
   444.34         52.5710
   444.48         52.6739
   444.62         52.7718
   444.76         52.8630
   444.90         52.9458
   445.04         53.0164
   445.18         53.0698
   445.32         53.1014
   445.46         53.1035
   445.60         53.0590
   445.74         52.9404
   445.88         52.7169
   446.02         52.3689
   446.16         51.9009
   446.30         51.3429
   446.44         50.7408
   446.58         50.1442
   446.72         49.5993
   446.86         49.1458
   447.00         48.8149
   447.14         48.6277
   447.28         48.5938
   447.42         48.7099
   447.56         48.9583
   447.70         49.3085
   447.84         49.7223
   447.98         50.1558
   448.12         50.5634
   448.26         50.9070
   448.40         51.1661
   448.54         51.3435
   448.68         51.4611
   448.82         51.5444
   448.96         51.6103
   449.10         51.6647
   449.24         51.7062
   449.38         51.7329
   449.52         51.7470
   449.66         51.7543
   449.80         51.7599
   449.94         51.7648
   450.08         51.7657
   450.22         51.7585
   450.36         51.7404
   450.50         51.7112
   450.64         51.6725
   450.78         51.6280
   450.92         51.5832
   451.06         51.5428
   451.20         51.5074
   451.34         51.4720
   451.48         51.4279
   451.62         51.3681
   451.76         51.2888
   451.90         51.1883
   452.04         51.0679
   452.18         50.9320
   452.32         50.7873
   452.46         50.6410
   452.60         50.5005
   452.74         50.3736
   452.88         50.2677
   453.02         50.1875
   453.16         50.1345
   453.30         50.1079
   453.44         50.1049
   453.58         50.1196
   453.72         50.1409
   453.86         50.1541
   454.00         50.1447
   454.14         50.1043
   454.28         50.0333
   454.42         49.9375
   454.56         49.8256
   454.70         49.7086
   454.84         49.5988
   454.98         49.5074
   455.12         49.4426
   455.26         49.4103
   455.40         49.4110
   455.54         49.4385
   455.68         49.4833
   455.82         49.5347
   455.96         49.5821
   456.10         49.6127
   456.24         49.6111
   456.38         49.5656
   456.52         49.4746
   456.66         49.3475
