# File HD12161
# Wavelength [nm]    Normalized Amplitude
   349.70         22.3579
   349.84         22.5941
   349.98         22.8446
   350.12         23.0953
   350.26         23.3333
   350.40         23.5471
   350.54         23.7292
   350.68         23.8749
   350.82         23.9819
   350.96         24.0481
   351.10         24.0706
   351.24         24.0481
   351.38         23.9819
   351.52         23.8749
   351.66         23.7292
   351.80         23.5471
   351.94         23.3333
   352.08         23.0953
   352.22         22.8446
   352.36         22.5941
   352.50         22.3579
   352.64         22.1499
   352.78         21.9819
   352.92         21.8638
   353.06         21.8023
   353.20         21.7993
   353.34         21.8460
   353.48         21.9237
   353.62         22.0122
   353.76         22.0957
   353.90         22.1659
   354.04         22.2209
   354.18         22.2630
   354.32         22.2939
   354.46         22.3138
   354.60         22.3241
   354.74         22.3289
   354.88         22.3350
   355.02         22.3495
   355.16         22.3740
   355.30         22.4023
   355.44         22.4223
   355.58         22.4203
   355.72         22.3818
   355.86         22.2930
   356.00         22.1435
   356.14         21.9346
   356.28         21.6809
   356.42         21.4040
   356.56         21.1281
   356.70         20.8757
   356.84         20.6629
   356.98         20.4971
   357.12         20.3799
   357.26         20.3084
   357.40         20.2727
   357.54         20.2572
   357.68         20.2449
   357.82         20.2226
   357.96         20.1840
   358.10         20.1290
   358.24         20.0602
   358.38         19.9832
   358.52         19.9084
   358.66         19.8489
   358.80         19.8168
   358.94         19.8220
   359.08         19.8722
   359.22         19.9691
   359.36         20.1063
   359.50         20.2678
   359.64         20.4291
   359.78         20.5658
   359.92         20.6612
   360.06         20.7101
   360.20         20.7188
   360.34         20.7007
   360.48         20.6676
   360.62         20.6250
   360.76         20.5762
   360.90         20.5274
   361.04         20.4884
   361.18         20.4679
   361.32         20.4704
   361.46         20.4977
   361.60         20.5491
   361.74         20.6173
   361.88         20.6876
   362.02         20.7415
   362.16         20.7635
   362.30         20.7487
   362.44         20.7068
   362.58         20.6550
   362.72         20.6086
   362.86         20.5778
   363.00         20.5690
   363.14         20.5881
   363.28         20.6411
   363.42         20.7304
   363.56         20.8503
   363.70         20.9868
   363.84         21.1236
   363.98         21.2486
   364.12         21.3568
   364.26         21.4479
   364.40         21.5246
   364.54         21.5922
   364.68         21.6578
   364.82         21.7314
   364.96         21.8228
   365.10         21.9353
   365.24         22.0637
   365.38         22.2001
   365.52         22.3397
   365.66         22.4797
   365.80         22.6142
   365.94         22.7302
   366.08         22.8117
   366.22         22.8521
   366.36         22.8578
   366.50         22.8397
   366.64         22.8070
   366.78         22.7624
   366.92         22.7031
   367.06         22.6246
   367.20         22.5242
   367.34         22.4018
   367.48         22.2591
   367.62         22.0991
   367.76         21.9253
   367.90         21.7459
   368.04         21.5747
   368.18         21.4262
   368.32         21.3120
   368.46         21.2353
   368.60         21.1949
   368.74         21.1916
   368.88         21.2281
   369.02         21.2972
   369.16         21.3812
   369.30         21.4621
   369.44         21.5280
   369.58         21.5762
   369.72         21.6082
   369.86         21.6241
   370.00         21.6233
   370.14         21.6100
   370.28         21.5993
   370.42         21.6189
   370.56         21.6975
   370.70         21.8478
   370.84         22.0607
   370.98         22.3118
   371.12         22.5724
   371.26         22.8253
   371.40         23.0671
   371.54         23.2984
   371.68         23.5186
   371.82         23.7279
   371.96         23.9219
   372.10         24.0848
   372.24         24.1925
   372.38         24.2216
   372.52         24.1639
   372.66         24.0337
   372.80         23.8652
   372.94         23.7020
   373.08         23.5813
   373.22         23.5234
   373.36         23.5321
   373.50         23.5994
   373.64         23.7102
   373.78         23.8455
   373.92         23.9886
   374.06         24.1294
   374.20         24.2605
   374.34         24.3754
   374.48         24.4736
   374.62         24.5611
   374.76         24.6546
   374.90         24.7849
   375.04         24.9880
   375.18         25.2931
   375.32         25.7112
   375.46         26.2242
   375.60         26.7809
   375.74         27.3033
   375.88         27.7076
   376.02         27.9284
   376.16         27.9367
   376.30         27.7513
   376.44         27.4361
   376.58         27.0861
   376.72         26.8045
   376.86         26.6811
   377.00         26.7805
   377.14         27.1384
   377.28         27.7564
   377.42         28.6044
   377.56         29.6249
   377.70         30.7373
   377.84         31.8478
   377.98         32.8551
   378.12         33.6545
   378.26         34.1510
   378.40         34.2787
   378.54         34.0151
   378.68         33.3856
   378.82         32.4576
   378.96         31.3316
   379.10         30.1296
   379.24         28.9816
   379.38         28.0116
   379.52         27.3238
   379.66         26.9944
   379.80         27.0656
   379.94         27.5383
   380.08         28.3727
   380.22         29.4978
   380.36         30.8224
   380.50         32.2440
   380.64         33.6579
   380.78         34.9662
   380.92         36.0886
   381.06         36.9739
   381.20         37.5995
   381.34         37.9636
   381.48         38.0796
   381.62         37.9704
   381.76         37.6611
   381.90         37.1703
   382.04         36.5062
   382.18         35.6717
   382.32         34.6706
   382.46         33.5133
   382.60         32.2272
   382.74         30.8708
   382.88         29.5308
   383.02         28.3072
   383.16         27.3018
   383.30         26.6044
   383.44         26.2801
   383.58         26.3644
   383.72         26.8620
   383.86         27.7459
   384.00         28.9657
   384.14         30.4519
   384.28         32.1128
   384.42         33.8374
   384.56         35.5086
   384.70         37.0255
   384.84         38.3205
   384.98         39.3648
   385.12         40.1652
   385.26         40.7574
   385.40         41.1928
   385.54         41.5261
   385.68         41.8058
   385.82         42.0668
   385.96         42.3238
   386.10         42.5725
   386.24         42.7970
   386.38         42.9729
   386.52         43.0683
   386.66         43.0490
   386.80         42.8842
   386.94         42.5506
   387.08         42.0325
   387.22         41.3206
   387.36         40.4112
   387.50         39.3072
   387.64         38.0174
   387.78         36.5625
   387.92         34.9812
   388.06         33.3325
   388.20         31.6911
   388.34         30.1413
   388.48         28.7712
   388.62         27.6652
   388.76         26.8954
   388.90         26.5139
   389.04         26.5442
   389.18         26.9797
   389.32         27.7873
   389.46         28.9066
   389.60         30.2574
   389.74         31.7529
   389.88         33.3091
   390.02         34.8511
   390.16         36.3165
   390.30         37.6582
   390.44         38.8453
   390.58         39.8607
   390.72         40.7003
   390.86         41.3723
   391.00         41.8967
   391.14         42.2964
   391.28         42.5876
   391.42         42.7769
   391.56         42.8628
   391.70         42.8363
   391.84         42.6741
   391.98         42.3312
   392.12         41.7545
   392.26         40.9082
   392.40         39.7927
   392.54         38.4513
   392.68         36.9705
   392.82         35.4705
   392.96         34.0883
   393.10         32.9567
   393.24         32.1865
   393.38         31.8539
   393.52         31.9861
   393.66         32.5535
   393.80         33.4731
   393.94         34.6254
   394.08         35.8754
   394.22         37.0908
   394.36         38.1532
   394.50         38.9683
   394.64         39.4834
   394.78         39.7014
   394.92         39.6656
   395.06         39.4326
   395.20         39.0463
   395.34         38.5217
   395.48         37.8434
   395.62         36.9768
   395.76         35.8863
   395.90         34.5578
   396.04         33.0158
   396.18         31.3242
   396.32         29.5786
   396.46         27.8981
   396.60         26.4116
   396.74         25.2411
   396.88         24.4844
   397.02         24.2053
   397.16         24.4271
   397.30         25.1321
   397.44         26.2624
   397.58         27.7259
   397.72         29.4116
   397.86         31.2060
   398.00         33.0034
   398.14         34.7170
   398.28         36.2863
   398.42         37.6787
   398.56         38.8858
   398.70         39.9171
   398.84         40.7912
   398.98         41.5284
   399.12         42.1500
   399.26         42.6720
   399.40         43.1034
   399.54         43.4538
   399.68         43.7393
   399.82         43.9800
   399.96         44.1977
   400.10         44.4113
   400.24         44.6337
   400.38         44.8737
   400.52         45.1399
   400.66         45.4419
   400.80         45.7842
   400.94         46.1613
   401.08         46.5570
   401.22         46.9485
   401.36         47.3128
   401.50         47.6315
   401.64         47.8883
   401.78         48.0640
   401.92         48.1394
   402.06         48.1061
   402.20         47.9726
   402.34         47.7613
   402.48         47.5051
   402.62         47.2408
   402.76         47.0032
   402.90         46.8222
   403.04         46.7213
   403.18         46.7114
   403.32         46.7819
   403.46         46.9040
   403.60         47.0473
   403.74         47.1890
   403.88         47.3160
   404.02         47.4231
   404.16         47.5060
   404.30         47.5526
   404.44         47.5476
   404.58         47.4834
   404.72         47.3650
   404.86         47.2056
   405.00         47.0197
   405.14         46.8151
   405.28         46.5892
   405.42         46.3367
   405.56         46.0573
   405.70         45.7596
   405.84         45.4581
   405.98         45.1707
   406.12         44.9198
   406.26         44.7250
   406.40         44.5911
   406.54         44.5023
   406.68         44.4284
   406.82         44.3389
   406.96         44.2113
   407.10         44.0325
   407.24         43.7971
   407.38         43.5040
   407.52         43.1537
   407.66         42.7479
   407.80         42.2905
   407.94         41.7894
   408.08         41.2555
   408.22         40.6977
   408.36         40.1144
   408.50         39.4911
   408.64         38.8034
   408.78         38.0202
   408.92         37.1066
   409.06         36.0348
   409.20         34.8018
   409.34         33.4422
   409.48         32.0254
   409.62         30.6381
   409.76         29.3717
   409.90         28.3160
   410.04         27.5534
   410.18         27.1529
   410.32         27.1594
   410.46         27.5859
   410.60         28.4103
   410.74         29.5737
   410.88         30.9888
   411.02         32.5530
   411.16         34.1601
   411.30         35.7117
   411.44         37.1252
   411.58         38.3450
   411.72         39.3485
   411.86         40.1398
   412.00         40.7369
   412.14         41.1645
   412.28         41.4547
   412.42         41.6509
   412.56         41.8029
   412.70         41.9598
   412.84         42.1598
   412.98         42.4219
   413.12         42.7453
   413.26         43.1143
   413.40         43.5065
   413.54         43.8994
   413.68         44.2689
   413.82         44.5897
   413.96         44.8413
   414.10         45.0086
   414.24         45.0824
   414.38         45.0604
   414.52         44.9511
   414.66         44.7777
   414.80         44.5741
   414.94         44.3778
   415.08         44.2198
   415.22         44.1169
   415.36         44.0739
   415.50         44.0849
   415.64         44.1386
   415.78         44.2258
   415.92         44.3390
   416.06         44.4685
   416.20         44.5999
   416.34         44.7153
   416.48         44.7982
   416.62         44.8339
   416.76         44.8119
   416.90         44.7320
   417.04         44.6077
   417.18         44.4598
   417.32         44.3093
   417.46         44.1723
   417.60         44.0588
   417.74         43.9755
   417.88         43.9299
   418.02         43.9316
   418.16         43.9887
   418.30         44.1035
   418.44         44.2646
   418.58         44.4436
   418.72         44.6063
   418.86         44.7274
   419.00         44.7946
   419.14         44.8055
   419.28         44.7659
   419.42         44.6898
   419.56         44.5965
   419.70         44.5051
   419.84         44.4335
   419.98         44.4006
   420.12         44.4227
   420.26         44.5049
   420.40         44.6391
   420.54         44.8068
   420.68         44.9823
   420.82         45.1353
   420.96         45.2364
   421.10         45.2625
   421.24         45.2026
   421.38         45.0589
   421.52         44.8423
   421.66         44.5691
   421.80         44.2628
   421.94         43.9531
   422.08         43.6670
   422.22         43.4227
   422.36         43.2296
   422.50         43.0913
   422.64         43.0068
   422.78         42.9698
   422.92         42.9714
   423.06         43.0053
   423.20         43.0681
   423.34         43.1555
   423.48         43.2591
   423.62         43.3669
   423.76         43.4637
   423.90         43.5349
   424.04         43.5725
   424.18         43.5798
   424.32         43.5687
   424.46         43.5507
   424.60         43.5298
   424.74         43.5024
   424.88         43.4669
   425.02         43.4291
   425.16         43.4000
   425.30         43.3904
   425.44         43.4097
   425.58         43.4614
   425.72         43.5408
   425.86         43.6338
   426.00         43.7204
   426.14         43.7790
   426.28         43.7929
   426.42         43.7560
   426.56         43.6745
   426.70         43.5648
   426.84         43.4484
   426.98         43.3440
   427.12         43.2629
   427.26         43.2091
   427.40         43.1793
   427.54         43.1658
   427.68         43.1542
   427.82         43.1218
   427.96         43.0437
   428.10         42.9014
   428.24         42.6841
   428.38         42.3901
   428.52         42.0261
   428.66         41.6072
   428.80         41.1543
   428.94         40.6911
   429.08         40.2413
   429.22         39.8259
   429.36         39.4593
   429.50         39.1450
   429.64         38.8761
   429.78         38.6417
   429.92         38.4347
   430.06         38.2507
   430.20         38.0849
   430.34         37.9313
   430.48         37.7893
   430.62         37.6691
   430.76         37.5837
   430.90         37.5358
   431.04         37.5171
   431.18         37.5120
   431.32         37.5006
   431.46         37.4639
   431.60         37.3913
   431.74         37.2825
   431.88         37.1391
   432.02         36.9565
   432.16         36.7242
   432.30         36.4289
   432.44         36.0553
   432.58         35.5824
   432.72         34.9818
   432.86         34.2269
   433.00         33.3088
   433.14         32.2469
   433.28         31.0855
   433.42         29.8846
   433.56         28.7165
   433.70         27.6612
   433.84         26.7957
   433.98         26.1848
   434.12         25.8766
   434.26         25.8994
   434.40         26.2548
   434.54         26.9150
   434.68         27.8300
   434.82         28.9359
   434.96         30.1615
   435.10         31.4349
   435.24         32.6933
   435.38         33.8912
   435.52         35.0032
   435.66         36.0191
   435.80         36.9376
   435.94         37.7596
   436.08         38.4842
   436.22         39.1055
   436.36         39.6150
   436.50         40.0117
   436.64         40.3083
   436.78         40.5269
   436.92         40.6922
   437.06         40.8238
   437.20         40.9345
   437.34         41.0319
   437.48         41.1213
   437.62         41.2084
   437.76         41.2974
   437.90         41.3897
   438.04         41.4850
   438.18         41.5786
   438.32         41.6642
   438.46         41.7394
   438.60         41.8049
   438.74         41.8590
   438.88         41.8958
   439.02         41.9131
   439.16         41.9157
   439.30         41.9087
   439.44         41.8924
   439.58         41.8645
   439.72         41.8261
   439.86         41.7858
   440.00         41.7579
   440.14         41.7555
   440.28         41.7830
   440.42         41.8311
   440.56         41.8833
   440.70         41.9256
   440.84         41.9495
   440.98         41.9527
   441.12         41.9368
   441.26         41.9058
   441.40         41.8663
   441.54         41.8296
   441.68         41.8113
   441.82         41.8248
   441.96         41.8743
   442.10         41.9546
   442.24         42.0545
   442.38         42.1603
   442.52         42.2602
   442.66         42.3465
   442.80         42.4151
   442.94         42.4600
   443.08         42.4718
   443.22         42.4464
   443.36         42.3897
   443.50         42.3134
   443.64         42.2265
   443.78         42.1349
   443.92         42.0452
   444.06         41.9618
   444.20         41.8831
   444.34         41.8027
   444.48         41.7111
   444.62         41.6005
   444.76         41.4666
   444.90         41.3119
   445.04         41.1466
   445.18         40.9843
   445.32         40.8356
   445.46         40.7035
   445.60         40.5828
   445.74         40.4690
   445.88         40.3687
   446.02         40.2954
   446.16         40.2597
   446.30         40.2648
   446.44         40.3102
   446.58         40.3934
   446.72         40.5062
   446.86         40.6333
   447.00         40.7540
   447.14         40.8538
   447.28         40.9296
   447.42         40.9856
   447.56         41.0283
   447.70         41.0602
   447.84         41.0772
   447.98         41.0726
   448.12         41.0433
   448.26         40.9907
   448.40         40.9216
   448.54         40.8493
   448.68         40.7878
   448.82         40.7465
   448.96         40.7286
   449.10         40.7348
   449.24         40.7661
   449.38         40.8234
   449.52         40.9055
   449.66         41.0121
   449.80         41.1474
   449.94         41.3122
   450.08         41.4991
   450.22         41.6939
   450.36         41.8770
   450.50         42.0294
   450.64         42.1395
   450.78         42.2001
   450.92         42.2023
   451.06         42.1400
   451.20         42.0145
   451.34         41.8337
   451.48         41.6095
   451.62         41.3537
   451.76         41.0765
   451.90         40.7862
   452.04         40.4898
   452.18         40.1928
   452.32         39.9052
   452.46         39.6461
   452.60         39.4375
   452.74         39.2946
   452.88         39.2221
   453.02         39.2178
   453.16         39.2776
   453.30         39.3937
   453.44         39.5524
   453.58         39.7346
   453.72         39.9190
   453.86         40.0840
   454.00         40.2116
   454.14         40.2880
   454.28         40.3022
   454.42         40.2519
   454.56         40.1486
   454.70         40.0121
   454.84         39.8651
   454.98         39.7314
   455.12         39.6288
   455.26         39.5628
   455.40         39.5322
   455.54         39.5367
   455.68         39.5751
   455.82         39.6395
   455.96         39.7163
   456.10         39.7900
   456.24         39.8475
   456.38         39.8819
   456.52         39.8945
   456.66         39.8910
   456.80         39.8748
   456.94         39.8449
