# File HD13136
# Wavelength [nm]    Normalized Amplitude
   349.70         7.7124
   349.84         7.5248
   349.98         7.3497
   350.12         7.1588
   350.26         6.9267
   350.40         6.6636
   350.54         6.4051
   350.68         6.1778
   350.82         6.0026
   350.96         5.8980
   351.10         5.8649
   351.24         5.8980
   351.38         6.0026
   351.52         6.1778
   351.66         6.4051
   351.80         6.6636
   351.94         6.9267
   352.08         7.1588
   352.22         7.3497
   352.36         7.5248
   352.50         7.7124
   352.64         7.9226
   352.78         8.1583
   352.92         8.4312
   353.06         8.7469
   353.20         9.0812
   353.34         9.4008
   353.48         9.6898
   353.62         9.9341
   353.76         10.1093
   353.90         10.1984
   354.04         10.1989
   354.18         10.1147
   354.32         9.9554
   354.46         9.7410
   354.60         9.4939
   354.74         9.2381
   354.88         9.0068
   355.02         8.8186
   355.16         8.6589
   355.30         8.5052
   355.44         8.3565
   355.58         8.2245
   355.72         8.1077
   355.86         7.9932
   356.00         7.8736
   356.14         7.7452
   356.28         7.5969
   356.42         7.4232
   356.56         7.2422
   356.70         7.0764
   356.84         6.9265
   356.98         6.7806
   357.12         6.6343
   357.26         6.4903
   357.40         6.3520
   357.54         6.2246
   357.68         6.1004
   357.82         5.9664
   357.96         5.8249
   358.10         5.6868
   358.24         5.5612
   358.38         5.4597
   358.52         5.4043
   358.66         5.4211
   358.80         5.5233
   358.94         5.7036
   359.08         5.9432
   359.22         6.2195
   359.36         6.5033
   359.50         6.7661
   359.64         6.9928
   359.78         7.1810
   359.92         7.3333
   360.06         7.4539
   360.20         7.5460
   360.34         7.6129
   360.48         7.6684
   360.62         7.7316
   360.76         7.8194
   360.90         7.9463
   361.04         8.1181
   361.18         8.3255
   361.32         8.5454
   361.46         8.7542
   361.60         8.9373
   361.74         9.0854
   361.88         9.1902
   362.02         9.2445
   362.16         9.2502
   362.30         9.2199
   362.44         9.1744
   362.58         9.1448
   362.72         9.1661
   362.86         9.2616
   363.00         9.4343
   363.14         9.6692
   363.28         9.9406
   363.42         10.2197
   363.56         10.4782
   363.70         10.6875
   363.84         10.8232
   363.98         10.8656
   364.12         10.8052
   364.26         10.6473
   364.40         10.4106
   364.54         10.1330
   364.68         9.8644
   364.82         9.6464
   364.96         9.5053
   365.10         9.4615
   365.24         9.5224
   365.38         9.6691
   365.52         9.8636
   365.66         10.0672
   365.80         10.2552
   365.94         10.4164
   366.08         10.5486
   366.22         10.6568
   366.36         10.7487
   366.50         10.8292
   366.64         10.8936
   366.78         10.9367
   366.92         10.9622
   367.06         10.9765
   367.20         10.9830
   367.34         10.9738
   367.48         10.9375
   367.62         10.8795
   367.76         10.8167
   367.90         10.7555
   368.04         10.6900
   368.18         10.6142
   368.32         10.5245
   368.46         10.4226
   368.60         10.3238
   368.74         10.2503
   368.88         10.2180
   369.02         10.2272
   369.16         10.2664
   369.30         10.3179
   369.44         10.3632
   369.58         10.3878
   369.72         10.3799
   369.86         10.3363
   370.00         10.2706
   370.14         10.2095
   370.28         10.1763
   370.42         10.1786
   370.56         10.2063
   370.70         10.2383
   370.84         10.2584
   370.98         10.2609
   371.12         10.2510
   371.26         10.2433
   371.40         10.2488
   371.54         10.2577
   371.68         10.2406
   371.82         10.1713
   371.96         10.0394
   372.10         9.8543
   372.24         9.6396
   372.38         9.4179
   372.52         9.2065
   372.66         9.0187
   372.80         8.8589
   372.94         8.7249
   373.08         8.6116
   373.22         8.5091
   373.36         8.4100
   373.50         8.3164
   373.64         8.2328
   373.78         8.1608
   373.92         8.1004
   374.06         8.0453
   374.20         7.9865
   374.34         7.9330
   374.48         7.9130
   374.62         7.9511
   374.76         8.0612
   374.90         8.2476
   375.04         8.5072
   375.18         8.8341
   375.32         9.2143
   375.46         9.6212
   375.60         10.0207
   375.74         10.3820
   375.88         10.6898
   376.02         10.9472
   376.16         11.1618
   376.30         11.3434
   376.44         11.5086
   376.58         11.6769
   376.72         11.8637
   376.86         12.0767
   377.00         12.3119
   377.14         12.5536
   377.28         12.7805
   377.42         12.9751
   377.56         13.1245
   377.70         13.2162
   377.84         13.2433
   377.98         13.2080
   378.12         13.1222
   378.26         13.0044
   378.40         12.8707
   378.54         12.7279
   378.68         12.5745
   378.82         12.4147
   378.96         12.2680
   379.10         12.1629
   379.24         12.1216
   379.38         12.1526
   379.52         12.2508
   379.66         12.4027
   379.80         12.5979
   379.94         12.8276
   380.08         13.0763
   380.22         13.3218
   380.36         13.5388
   380.50         13.7015
   380.64         13.7837
   380.78         13.7609
   380.92         13.6181
   381.06         13.3549
   381.20         12.9858
   381.34         12.5407
   381.48         12.0603
   381.62         11.5828
   381.76         11.1347
   381.90         10.7329
   382.04         10.3900
   382.18         10.1158
   382.32         9.9197
   382.46         9.8066
   382.60         9.7659
   382.74         9.7763
   382.88         9.8243
   383.02         9.9061
   383.16         10.0228
   383.30         10.1787
   383.44         10.3782
   383.58         10.6237
   383.72         10.9110
   383.86         11.2291
   384.00         11.5667
   384.14         11.9127
   384.28         12.2461
   384.42         12.5373
   384.56         12.7616
   384.70         12.9021
   384.84         12.9516
   384.98         12.9170
   385.12         12.8154
   385.26         12.6680
   385.40         12.4994
   385.54         12.3367
   385.68         12.2055
   385.82         12.1292
   385.96         12.1229
   386.10         12.1855
   386.24         12.3019
   386.38         12.4506
   386.52         12.6110
   386.66         12.7641
   386.80         12.8919
   386.94         12.9806
   387.08         13.0253
   387.22         13.0301
   387.36         13.0046
   387.50         12.9586
   387.64         12.8980
   387.78         12.8256
   387.92         12.7472
   388.06         12.6745
   388.20         12.6217
   388.34         12.5995
   388.48         12.6101
   388.62         12.6460
   388.76         12.6975
   388.90         12.7628
   389.04         12.8532
   389.18         12.9875
   389.32         13.1807
   389.46         13.4349
   389.60         13.7373
   389.74         14.0671
   389.88         14.4047
   390.02         14.7315
   390.16         15.0287
   390.30         15.2814
   390.44         15.4797
   390.58         15.6124
   390.72         15.6610
   390.86         15.6070
   391.00         15.4446
   391.14         15.1854
   391.28         14.8530
   391.42         14.4746
   391.56         14.0707
   391.70         13.6476
   391.84         13.1972
   391.98         12.7031
   392.12         12.1533
   392.26         11.5541
   392.40         10.9303
   392.54         10.3108
   392.68         9.7250
   392.82         9.2094
   392.96         8.8039
   393.10         8.5429
   393.24         8.4497
   393.38         8.5369
   393.52         8.8073
   393.66         9.2521
   393.80         9.8455
   393.94         10.5478
   394.08         11.3111
   394.22         12.0854
   394.36         12.8240
   394.50         13.4886
   394.64         14.0516
   394.78         14.4940
   394.92         14.8023
   395.06         14.9621
   395.20         14.9615
   395.34         14.7991
   395.48         14.4829
   395.62         14.0252
   395.76         13.4439
   395.90         12.7700
   396.04         12.0498
   396.18         11.3444
   396.32         10.7215
   396.46         10.2435
   396.60         9.9606
   396.74         9.9035
   396.88         10.0793
   397.02         10.4772
   397.16         11.0775
   397.30         11.8586
   397.44         12.7928
   397.58         13.8401
   397.72         14.9508
   397.86         16.0763
   398.00         17.1732
   398.14         18.2010
   398.28         19.1264
   398.42         19.9260
   398.56         20.5912
   398.70         21.1340
   398.84         21.5852
   398.98         21.9831
   399.12         22.3577
   399.26         22.7269
   399.40         23.1005
   399.54         23.4877
   399.68         23.8999
   399.82         24.3463
   399.96         24.8295
   400.10         25.3435
   400.24         25.8815
   400.38         26.4380
   400.52         27.0027
   400.66         27.5572
   400.80         28.0761
   400.94         28.5325
   401.08         28.9055
   401.22         29.1905
   401.36         29.3997
   401.50         29.5515
   401.64         29.6545
   401.78         29.6989
   401.92         29.6661
   402.06         29.5444
   402.20         29.3469
   402.34         29.1140
   402.48         28.8992
   402.62         28.7446
   402.76         28.6723
   402.90         28.6875
   403.04         28.7710
   403.18         28.8836
   403.32         28.9884
   403.46         29.0663
   403.60         29.1197
   403.74         29.1695
   403.88         29.2461
   404.02         29.3686
   404.16         29.5278
   404.30         29.6894
   404.44         29.8160
   404.58         29.8885
   404.72         29.9121
   404.86         29.9056
   405.00         29.8787
   405.14         29.8247
   405.28         29.7330
   405.42         29.6084
   405.56         29.4734
   405.70         29.3496
   405.84         29.2546
   405.98         29.2133
   406.12         29.2470
   406.26         29.3494
   406.40         29.4814
   406.54         29.5887
   406.68         29.6276
   406.82         29.5827
   406.96         29.4677
   407.10         29.3151
   407.24         29.1738
   407.38         29.1080
   407.52         29.1872
   407.66         29.4725
   407.80         30.0038
   407.94         30.7882
   408.08         31.7946
   408.22         32.9575
   408.36         34.1798
   408.50         35.3478
   408.64         36.3452
   408.78         37.0592
   408.92         37.4034
   409.06         37.3530
   409.20         36.9559
   409.34         36.3060
   409.48         35.5048
   409.62         34.6396
   409.76         33.7853
   409.90         33.0118
   410.04         32.3798
   410.18         31.9296
   410.32         31.6734
   410.46         31.5955
   410.60         31.6576
   410.74         31.8105
   410.88         32.0023
   411.02         32.1881
   411.16         32.3428
   411.30         32.4657
   411.44         32.5730
   411.58         32.6875
   411.72         32.8248
   411.86         32.9777
   412.00         33.1122
   412.14         33.1894
   412.28         33.1942
   412.42         33.1420
   412.56         33.0717
   412.70         33.0266
   412.84         33.0324
   412.98         33.0876
   413.12         33.1771
   413.26         33.2936
   413.40         33.4410
   413.54         33.6208
   413.68         33.8221
   413.82         34.0241
   413.96         34.1987
   414.10         34.3163
   414.24         34.3604
   414.38         34.3432
   414.52         34.3073
   414.66         34.3140
   414.80         34.4294
   414.94         34.7061
   415.08         35.1624
   415.22         35.7778
   415.36         36.5021
   415.50         37.2687
   415.64         38.0098
   415.78         38.6634
   415.92         39.1643
   416.06         39.4396
   416.20         39.4267
   416.34         39.1002
   416.48         38.4834
   416.62         37.6448
   416.76         36.6894
   416.90         35.7410
   417.04         34.9201
   417.18         34.3218
   417.32         33.9989
   417.46         33.9599
   417.60         34.1799
   417.74         34.6119
   417.88         35.1994
   418.02         35.8863
   418.16         36.6134
   418.30         37.3101
   418.44         37.8973
   418.58         38.3024
   418.72         38.4831
   418.86         38.4344
   419.00         38.1770
   419.14         37.7455
   419.28         37.1890
   419.42         36.5704
   419.56         35.9592
   419.70         35.4264
   419.84         35.0355
   419.98         34.8307
   420.12         34.8305
   420.26         35.0282
   420.40         35.4018
   420.54         35.9252
   420.68         36.5678
   420.82         37.2850
   420.96         38.0127
   421.10         38.6686
   421.24         39.1627
   421.38         39.4139
   421.52         39.3699
   421.66         39.0272
   421.80         38.4332
   421.94         37.6654
   422.08         36.8042
   422.22         35.9222
   422.36         35.0843
   422.50         34.3469
   422.64         33.7629
   422.78         33.3927
   422.92         33.3104
   423.06         33.5961
   423.20         34.3025
   423.34         35.4142
   423.48         36.8393
   423.62         38.4322
   423.76         40.0266
   423.90         41.4704
   424.04         42.6506
   424.18         43.5047
   424.32         44.0110
   424.46         44.1680
   424.60         43.9897
   424.74         43.5218
   424.88         42.8588
   425.02         42.1436
   425.16         41.5465
   425.30         41.2314
   425.44         41.3188
   425.58         41.8511
   425.72         42.7757
   425.86         43.9527
   426.00         45.1876
   426.14         46.2877
   426.28         47.1096
   426.42         47.5810
   426.56         47.7041
   426.70         47.5367
   426.84         47.1588
   426.98         46.6516
   427.12         46.0933
   427.26         45.5541
   427.40         45.0908
   427.54         44.7296
   427.68         44.4538
   427.82         44.2061
   427.96         43.9125
   428.10         43.5126
   428.24         42.9755
   428.38         42.3089
   428.52         41.5527
   428.66         40.7663
   428.80         40.0190
   428.94         39.3764
   429.08         38.8845
   429.22         38.5568
   429.36         38.3667
   429.50         38.2665
   429.64         38.2263
   429.78         38.2601
   429.92         38.4094
   430.06         38.7194
   430.20         39.2350
   430.34         40.0217
   430.48         41.1643
   430.62         42.7242
   430.76         44.6952
   430.90         46.9931
   431.04         49.4731
   431.18         51.9510
   431.32         54.2374
   431.46         56.1874
   431.60         57.7319
   431.74         58.8709
   431.88         59.6497
   432.02         60.1497
   432.16         60.4905
   432.30         60.8024
   432.44         61.1686
   432.58         61.5865
   432.72         61.9859
   432.86         62.2922
   433.00         62.4633
   433.14         62.4771
   433.28         62.3200
   433.42         62.0013
   433.56         61.5729
   433.70         61.1209
   433.84         60.7292
   433.98         60.4709
   434.12         60.4283
   434.26         60.6817
   434.40         61.2796
   434.54         62.2248
   434.68         63.4620
   434.82         64.8874
   434.96         66.3858
   435.10         67.8697
   435.24         69.3053
   435.38         70.6986
   435.52         72.0654
   435.66         73.4001
   435.80         74.6683
   435.94         75.8066
   436.08         76.7170
   436.22         77.2842
   436.36         77.4099
   436.50         77.0580
   436.64         76.2785
   436.78         75.1753
   436.92         73.8432
   437.06         72.3276
   437.20         70.6415
   437.34         68.8142
   437.48         66.9182
   437.62         65.0468
   437.76         63.2774
   437.90         61.6653
   438.04         60.2568
   438.18         59.1044
   438.32         58.2798
   438.46         57.8606
   438.60         57.8850
   438.74         58.3384
   438.88         59.1864
   439.02         60.3756
   439.16         61.7877
   439.30         63.2178
   439.44         64.4202
   439.58         65.1941
   439.72         65.4519
   439.86         65.2399
   440.00         64.6920
   440.14         63.9487
   440.28         63.1238
   440.42         62.3289
   440.56         61.6867
   440.70         61.3029
   440.84         61.2344
   440.98         61.4894
   441.12         62.0352
   441.26         62.7986
   441.40         63.6798
   441.54         64.5729
   441.68         65.3786
   441.82         66.0218
   441.96         66.4735
   442.10         66.7374
   442.24         66.8306
   442.38         66.7873
   442.52         66.6538
   442.66         66.4745
   442.80         66.2749
   442.94         66.0634
   443.08         65.8587
   443.22         65.6958
   443.36         65.6193
   443.50         65.6752
   443.64         65.8984
   443.78         66.2992
   443.92         66.8507
   444.06         67.4863
   444.20         68.1136
   444.34         68.6326
   444.48         68.9451
   444.62         68.9578
   444.76         68.6023
   444.90         67.8755
   445.04         66.8575
   445.18         65.6676
   445.32         64.4135
   445.46         63.1810
   445.60         62.0628
   445.74         61.1824
   445.88         60.6747
   446.02         60.6538
   446.16         61.1897
   446.30         62.2983
   446.44         63.9478
   446.58         66.0535
   446.72         68.4689
   446.86         71.0151
   447.00         73.5366
   447.14         75.9287
   447.28         78.1337
   447.42         80.1235
   447.56         81.8738
   447.70         83.3553
   447.84         84.5430
   447.98         85.4250
   448.12         85.9978
   448.26         86.2679
   448.40         86.2710
   448.54         86.0857
   448.68         85.8195
   448.82         85.5833
   448.96         85.4930
   449.10         85.6686
   449.24         86.2026
   449.38         87.1380
   449.52         88.4844
   449.66         90.2273
   449.80         92.2938
   449.94         94.5293
   450.08         96.7168
   450.22         98.6334
   450.36         100.1118
   450.50         101.0575
   450.64         101.4433
   450.78         101.3068
   450.92         100.7339
   451.06         99.8401
   451.20         98.7408
   451.34         97.5177
   451.48         96.2152
   451.62         94.8603
   451.76         93.4560
   451.90         91.9661
   452.04         90.3400
   452.18         88.5557
   452.32         86.6602
   452.46         84.7698
   452.60         83.0311
   452.74         81.5860
   452.88         80.5619
   453.02         80.0553
   453.16         80.1017
   453.30         80.6646
   453.44         81.6382
   453.58         82.8608
   453.72         84.1660
   453.86         85.4098
   454.00         86.4662
   454.14         87.2497
   454.28         87.7532
   454.42         88.0518
   454.56         88.2601
   454.70         88.5044
   454.84         88.9133
   454.98         89.5863
   455.12         90.5519
   455.26         91.7822
   455.40         93.2448
   455.54         94.9153
   455.68         96.7435
   455.82         98.6356
   455.96         100.5018
   456.10         102.2842
   456.24         103.9345
   456.38         105.3969
   456.52         106.6003
   456.66         107.4768
   456.80         108.0080
   456.94         108.2324
   457.08         108.1934
   457.22         107.8981
   457.36         107.3514
   457.50         106.5961
