# File HD13505
# Wavelength [nm]    Normalized Amplitude
   349.70         10.3991
   349.84         10.3692
   349.98         10.3625
   350.12         10.3775
   350.26         10.4095
   350.40         10.4521
   350.54         10.4985
   350.68         10.5417
   350.82         10.5760
   350.96         10.5975
   351.10         10.6048
   351.24         10.5975
   351.38         10.5760
   351.52         10.5417
   351.66         10.4985
   351.80         10.4521
   351.94         10.4095
   352.08         10.3775
   352.22         10.3625
   352.36         10.3692
   352.50         10.3991
   352.64         10.4515
   352.78         10.5232
   352.92         10.6095
   353.06         10.7043
   353.20         10.8006
   353.34         10.8918
   353.48         10.9724
   353.62         11.0387
   353.76         11.0895
   353.90         11.1253
   354.04         11.1471
   354.18         11.1556
   354.32         11.1520
   354.46         11.1384
   354.60         11.1173
   354.74         11.0903
   354.88         11.0584
   355.02         11.0208
   355.16         10.9744
   355.30         10.9152
   355.44         10.8406
   355.58         10.7503
   355.72         10.6447
   355.86         10.5266
   356.00         10.3999
   356.14         10.2697
   356.28         10.1413
   356.42         10.0201
   356.56         9.9095
   356.70         9.8104
   356.84         9.7241
   356.98         9.6531
   357.12         9.5984
   357.26         9.5572
   357.40         9.5238
   357.54         9.4918
   357.68         9.4560
   357.82         9.4148
   357.96         9.3717
   358.10         9.3343
   358.24         9.3099
   358.38         9.3039
   358.52         9.3205
   358.66         9.3631
   358.80         9.4322
   358.94         9.5244
   359.08         9.6314
   359.22         9.7428
   359.36         9.8492
   359.50         9.9424
   359.64         10.0141
   359.78         10.0576
   359.92         10.0692
   360.06         10.0493
   360.20         10.0027
   360.34         9.9384
   360.48         9.8658
   360.62         9.7924
   360.76         9.7233
   360.90         9.6613
   361.04         9.6090
   361.18         9.5693
   361.32         9.5452
   361.46         9.5383
   361.60         9.5495
   361.74         9.5777
   361.88         9.6193
   362.02         9.6685
   362.16         9.7178
   362.30         9.7599
   362.44         9.7905
   362.58         9.8080
   362.72         9.8134
   362.86         9.8094
   363.00         9.7985
   363.14         9.7816
   363.28         9.7614
   363.42         9.7425
   363.56         9.7293
   363.70         9.7259
   363.84         9.7353
   363.98         9.7597
   364.12         9.8007
   364.26         9.8578
   364.40         9.9288
   364.54         10.0124
   364.68         10.1084
   364.82         10.2170
   364.96         10.3373
   365.10         10.4653
   365.24         10.5941
   365.38         10.7159
   365.52         10.8239
   365.66         10.9137
   365.80         10.9837
   365.94         11.0348
   366.08         11.0691
   366.22         11.0886
   366.36         11.0956
   366.50         11.0918
   366.64         11.0775
   366.78         11.0519
   366.92         11.0133
   367.06         10.9601
   367.20         10.8909
   367.34         10.8061
   367.48         10.7094
   367.62         10.6070
   367.76         10.5062
   367.90         10.4162
   368.04         10.3470
   368.18         10.3066
   368.32         10.3002
   368.46         10.3287
   368.60         10.3886
   368.74         10.4739
   368.88         10.5766
   369.02         10.6869
   369.16         10.7936
   369.30         10.8857
   369.44         10.9552
   369.58         10.9980
   369.72         11.0126
   369.86         11.0008
   370.00         10.9672
   370.14         10.9186
   370.28         10.8654
   370.42         10.8214
   370.56         10.8005
   370.70         10.8113
   370.84         10.8553
   370.98         10.9267
   371.12         11.0159
   371.26         11.1158
   371.40         11.2227
   371.54         11.3329
   371.68         11.4409
   371.82         11.5408
   371.96         11.6272
   372.10         11.6930
   372.24         11.7286
   372.38         11.7253
   372.52         11.6816
   372.66         11.6075
   372.80         11.5223
   372.94         11.4482
   373.08         11.4028
   373.22         11.3963
   373.36         11.4303
   373.50         11.4992
   373.64         11.5924
   373.78         11.6966
   373.92         11.7986
   374.06         11.8863
   374.20         11.9509
   374.34         11.9905
   374.48         12.0089
   374.62         12.0123
   374.76         12.0096
   374.90         12.0146
   375.04         12.0462
   375.18         12.1232
   375.32         12.2568
   375.46         12.4422
   375.60         12.6573
   375.74         12.8677
   375.88         13.0357
   376.02         13.1298
   376.16         13.1336
   376.30         13.0512
   376.44         12.9070
   376.58         12.7413
   376.72         12.6023
   376.86         12.5345
   377.00         12.5694
   377.14         12.7219
   377.28         12.9914
   377.42         13.3645
   377.56         13.8169
   377.70         14.3156
   377.84         14.8218
   377.98         15.2926
   378.12         15.6848
   378.26         15.9599
   378.40         16.0900
   378.54         16.0620
   378.68         15.8809
   378.82         15.5712
   378.96         15.1734
   379.10         14.7391
   379.24         14.3234
   379.38         13.9755
   379.52         13.7323
   379.66         13.6207
   379.80         13.6587
   379.94         13.8507
   380.08         14.1855
   380.22         14.6382
   380.36         15.1754
   380.50         15.7588
   380.64         16.3472
   380.78         16.8994
   380.92         17.3791
   381.06         17.7616
   381.20         18.0362
   381.34         18.2048
   381.48         18.2776
   381.62         18.2651
   381.76         18.1738
   381.90         18.0050
   382.04         17.7544
   382.18         17.4164
   382.32         16.9901
   382.46         16.4795
   382.60         15.8962
   382.74         15.2654
   382.88         14.6266
   383.02         14.0286
   383.16         13.5212
   383.30         13.1474
   383.44         12.9403
   383.58         12.9226
   383.72         13.1031
   383.86         13.4735
   384.00         14.0100
   384.14         14.6770
   384.28         15.4291
   384.42         16.2143
   384.56         16.9793
   384.70         17.6776
   384.84         18.2778
   384.98         18.7673
   385.12         19.1486
   385.26         19.4359
   385.40         19.6505
   385.54         19.8152
   385.68         19.9487
   385.82         20.0651
   385.96         20.1718
   386.10         20.2696
   386.24         20.3533
   386.38         20.4131
   386.52         20.4365
   386.66         20.4107
   386.80         20.3241
   386.94         20.1688
   387.08         19.9402
   387.22         19.6359
   387.36         19.2549
   387.50         18.7965
   387.64         18.2601
   387.78         17.6495
   387.92         16.9783
   388.06         16.2721
   388.20         15.5644
   388.34         14.8939
   388.48         14.3005
   388.62         13.8207
   388.76         13.4849
   388.90         13.3154
   389.04         13.3232
   389.18         13.5049
   389.32         13.8439
   389.46         14.3127
   389.60         14.8771
   389.74         15.4986
   389.88         16.1389
   390.02         16.7640
   390.16         17.3470
   390.30         17.8706
   390.44         18.3274
   390.58         18.7170
   390.72         19.0426
   390.86         19.3071
   391.00         19.5135
   391.14         19.6649
   391.28         19.7639
   391.42         19.8125
   391.56         19.8095
   391.70         19.7474
   391.84         19.6099
   391.98         19.3735
   392.12         19.0138
   392.26         18.5160
   392.40         17.8826
   392.54         17.1380
   392.68         16.3278
   392.82         15.5138
   392.96         14.7662
   393.10         14.1534
   393.24         13.7338
   393.38         13.5486
   393.52         13.6145
   393.66         13.9216
   393.80         14.4353
   393.94         15.1012
   394.08         15.8524
   394.22         16.6169
   394.36         17.3255
   394.50         17.9199
   394.64         18.3623
   394.78         18.6414
   394.92         18.7683
   395.06         18.7657
   395.20         18.6554
   395.34         18.4496
   395.48         18.1476
   395.62         17.7406
   395.76         17.2190
   395.90         16.5831
   396.04         15.8492
   396.18         15.0516
   396.32         14.2390
   396.46         13.4698
   396.60         12.8047
   396.74         12.2989
   396.88         11.9947
   397.02         11.9175
   397.16         12.0746
   397.30         12.4558
   397.44         13.0338
   397.58         13.7651
   397.72         14.5947
   397.86         15.4645
   398.00         16.3217
   398.14         17.1246
   398.28         17.8462
   398.42         18.4734
   398.56         19.0047
   398.70         19.4470
   398.84         19.8119
   398.98         20.1110
   399.12         20.3542
   399.26         20.5487
   399.40         20.7001
   399.54         20.8146
   399.68         20.9012
   399.82         20.9701
   399.96         21.0319
   400.10         21.0958
   400.24         21.1677
   400.38         21.2516
   400.52         21.3502
   400.66         21.4633
   400.80         21.5881
   400.94         21.7189
   401.08         21.8490
   401.22         21.9731
   401.36         22.0883
   401.50         22.1924
   401.64         22.2817
   401.78         22.3511
   401.92         22.3947
   402.06         22.4082
   402.20         22.3910
   402.34         22.3467
   402.48         22.2830
   402.62         22.2101
   402.76         22.1378
   402.90         22.0754
   403.04         22.0303
   403.18         22.0072
   403.32         22.0062
   403.46         22.0238
   403.60         22.0555
   403.74         22.0974
   403.88         22.1459
   404.02         22.1964
   404.16         22.2431
   404.30         22.2784
   404.44         22.2941
   404.58         22.2839
   404.72         22.2474
   404.86         22.1910
   405.00         22.1232
   405.14         22.0496
   405.28         21.9716
   405.42         21.8892
   405.56         21.8038
   405.70         21.7184
   405.84         21.6359
   405.98         21.5577
   406.12         21.4857
   406.26         21.4216
   406.40         21.3630
   406.54         21.3016
   406.68         21.2265
   406.82         21.1300
   406.96         21.0097
   407.10         20.8690
   407.24         20.7146
   407.38         20.5548
   407.52         20.3964
   407.66         20.2450
   407.80         20.1039
   407.94         19.9740
   408.08         19.8536
   408.22         19.7371
   408.36         19.6144
   408.50         19.4699
   408.64         19.2839
   408.78         19.0358
   408.92         18.7050
   409.06         18.2758
   409.20         17.7463
   409.34         17.1336
   409.48         16.4723
   409.62         15.8082
   409.76         15.1900
   409.90         14.6637
   410.04         14.2694
   410.18         14.0391
   410.32         13.9934
   410.46         14.1360
   410.60         14.4537
   410.74         14.9181
   410.88         15.4900
   411.02         16.1236
   411.16         16.7726
   411.30         17.3947
   411.44         17.9564
   411.58         18.4368
   411.72         18.8301
   411.86         19.1424
   412.00         19.3853
   412.14         19.5720
   412.28         19.7155
   412.42         19.8290
   412.56         19.9266
   412.70         20.0226
   412.84         20.1290
   412.98         20.2521
   413.12         20.3911
   413.26         20.5417
   413.40         20.6993
   413.54         20.8603
   413.68         21.0213
   413.82         21.1765
   413.96         21.3180
   414.10         21.4364
   414.24         21.5242
   414.38         21.5763
   414.52         21.5914
   414.66         21.5741
   414.80         21.5338
   414.94         21.4815
   415.08         21.4284
   415.22         21.3844
   415.36         21.3575
   415.50         21.3528
   415.64         21.3714
   415.78         21.4110
   415.92         21.4668
   416.06         21.5294
   416.20         21.5849
   416.34         21.6181
   416.48         21.6160
   416.62         21.5705
   416.76         21.4801
   416.90         21.3516
   417.04         21.1981
   417.18         21.0366
   417.32         20.8841
   417.46         20.7538
   417.60         20.6556
   417.74         20.5973
   417.88         20.5835
   418.02         20.6148
   418.16         20.6867
   418.30         20.7898
   418.44         20.9108
   418.58         21.0337
   418.72         21.1433
   418.86         21.2282
   419.00         21.2823
   419.14         21.3040
   419.28         21.2952
   419.42         21.2612
   419.56         21.2096
   419.70         21.1499
   419.84         21.0925
   419.98         21.0484
   420.12         21.0281
   420.26         21.0388
   420.40         21.0813
   420.54         21.1495
   420.68         21.2329
   420.82         21.3195
   420.96         21.3976
   421.10         21.4561
   421.24         21.4856
   421.38         21.4799
   421.52         21.4366
   421.66         21.3588
   421.80         21.2554
   421.94         21.1386
   422.08         21.0221
   422.22         20.9178
   422.36         20.8347
   422.50         20.7780
   422.64         20.7487
   422.78         20.7439
   422.92         20.7592
   423.06         20.7908
   423.20         20.8363
   423.34         20.8931
   423.48         20.9567
   423.62         21.0200
   423.76         21.0748
   423.90         21.1141
   424.04         21.1365
   424.18         21.1464
   424.32         21.1509
   424.46         21.1560
   424.60         21.1640
   424.74         21.1734
   424.88         21.1810
   425.02         21.1841
   425.16         21.1829
   425.30         21.1804
   425.44         21.1805
   425.58         21.1854
   425.72         21.1931
   425.86         21.1988
   426.00         21.1969
   426.14         21.1831
   426.28         21.1560
   426.42         21.1176
   426.56         21.0722
   426.70         21.0252
   426.84         20.9815
   426.98         20.9430
   427.12         20.9094
   427.26         20.8802
   427.40         20.8548
   427.54         20.8321
   427.68         20.8092
   427.82         20.7810
   427.96         20.7408
   428.10         20.6823
   428.24         20.6011
   428.38         20.4966
   428.52         20.3724
   428.66         20.2343
   428.80         20.0883
   428.94         19.9398
   429.08         19.7935
   429.22         19.6533
   429.36         19.5224
   429.50         19.4041
   429.64         19.3008
   429.78         19.2144
   429.92         19.1473
   430.06         19.1000
   430.20         19.0702
   430.34         19.0538
   430.48         19.0483
   430.62         19.0541
   430.76         19.0721
   430.90         19.0997
   431.04         19.1320
   431.18         19.1623
   431.32         19.1830
   431.46         19.1861
   431.60         19.1667
   431.74         19.1242
   431.88         19.0600
   432.02         18.9752
   432.16         18.8689
   432.30         18.7372
   432.44         18.5727
   432.58         18.3642
   432.72         18.0965
   432.86         17.7541
   433.00         17.3280
   433.14         16.8224
   433.28         16.2552
   433.42         15.6565
   433.56         15.0660
   433.70         14.5278
   433.84         14.0829
   433.98         13.7651
   434.12         13.5993
   434.26         13.6002
   434.40         13.7708
   434.54         14.1005
   434.68         14.5661
   434.82         15.1335
   434.96         15.7623
   435.10         16.4122
   435.24         17.0483
   435.38         17.6447
   435.52         18.1864
   435.66         18.6686
   435.80         19.0934
   435.94         19.4649
   436.08         19.7858
   436.22         20.0558
   436.36         20.2718
   436.50         20.4325
   436.64         20.5425
   436.78         20.6121
   436.92         20.6542
   437.06         20.6795
   437.20         20.6929
   437.34         20.6952
   437.48         20.6862
   437.62         20.6688
   437.76         20.6484
   437.90         20.6304
   438.04         20.6178
   438.18         20.6101
   438.32         20.6056
   438.46         20.6034
   438.60         20.6037
   438.74         20.6055
   438.88         20.6074
   439.02         20.6090
   439.16         20.6106
   439.30         20.6121
   439.44         20.6123
   439.58         20.6093
   439.72         20.6025
   439.86         20.5941
   440.00         20.5890
   440.14         20.5937
   440.28         20.6117
   440.42         20.6398
   440.56         20.6701
   440.70         20.6933
   440.84         20.7015
   440.98         20.6918
   441.12         20.6660
   441.26         20.6280
   441.40         20.5831
   441.54         20.5382
   441.68         20.5011
   441.82         20.4791
   441.96         20.4778
   442.10         20.4983
   442.24         20.5378
   442.38         20.5892
   442.52         20.6441
   442.66         20.6959
   442.80         20.7394
   442.94         20.7696
   443.08         20.7810
   443.22         20.7708
   443.36         20.7400
   443.50         20.6924
   443.64         20.6344
   443.78         20.5723
   443.92         20.5114
   444.06         20.4552
   444.20         20.4057
   444.34         20.3624
   444.48         20.3234
   444.62         20.2854
   444.76         20.2461
   444.90         20.2055
   445.04         20.1672
   445.18         20.1358
   445.32         20.1144
   445.46         20.1023
   445.60         20.0947
   445.74         20.0860
   445.88         20.0742
   446.02         20.0607
   446.16         20.0491
   446.30         20.0419
   446.44         20.0401
   446.58         20.0433
   446.72         20.0490
   446.86         20.0518
   447.00         20.0459
   447.14         20.0284
   447.28         20.0007
   447.42         19.9677
   447.56         19.9349
   447.70         19.9061
   447.84         19.8817
   447.98         19.8608
   448.12         19.8426
   448.26         19.8285
   448.40         19.8225
   448.54         19.8298
   448.68         19.8547
   448.82         19.8977
   448.96         19.9551
   449.10         20.0214
   449.24         20.0918
   449.38         20.1621
   449.52         20.2291
   449.66         20.2913
   449.80         20.3503
   449.94         20.4081
   450.08         20.4650
   450.22         20.5186
   450.36         20.5641
   450.50         20.5978
   450.64         20.6185
   450.78         20.6258
   450.92         20.6188
   451.06         20.5958
   451.20         20.5565
   451.34         20.5006
   451.48         20.4284
   451.62         20.3405
   451.76         20.2382
   451.90         20.1227
   452.04         19.9948
   452.18         19.8548
   452.32         19.7057
   452.46         19.5563
   452.60         19.4188
   452.74         19.3047
   452.88         19.2231
   453.02         19.1792
   453.16         19.1752
   453.30         19.2090
   453.44         19.2746
   453.58         19.3632
   453.72         19.4630
   453.86         19.5601
   454.00         19.6402
   454.14         19.6915
   454.28         19.7052
   454.42         19.6780
   454.56         19.6147
   454.70         19.5261
   454.84         19.4268
   454.98         19.3333
   455.12         19.2604
   455.26         19.2177
   455.40         19.2096
   455.54         19.2370
   455.68         19.2978
   455.82         19.3871
   455.96         19.4972
   456.10         19.6179
   456.24         19.7383
   456.38         19.8484
   456.52         19.9418
   456.66         20.0145
   456.80         20.0641
   456.94         20.0882
   457.08         20.0856
   457.22         20.0572
