# File HD13494
# Wavelength [nm]    Normalized Amplitude
   349.70         97.3297
   349.84         97.6391
   349.98         97.9475
   350.12         98.2394
   350.26         98.4976
   350.40         98.7200
   350.54         98.9055
   350.68         99.0459
   350.82         99.1392
   350.96         99.1904
   351.10         99.2063
   351.24         99.1904
   351.38         99.1392
   351.52         99.0459
   351.66         98.9055
   351.80         98.7200
   351.94         98.4976
   352.08         98.2394
   352.22         97.9475
   352.36         97.6391
   352.50         97.3297
   352.64         97.0310
   352.78         96.7585
   352.92         96.5255
   353.06         96.3318
   353.20         96.1625
   353.34         96.0207
   353.48         95.9329
   353.62         95.9165
   353.76         95.9639
   353.90         96.0325
   354.04         96.0641
   354.18         96.0167
   354.32         95.8739
   354.46         95.6480
   354.60         95.3620
   354.74         95.0297
   354.88         94.6639
   355.02         94.2828
   355.16         93.9069
   355.30         93.5588
   355.44         93.2561
   355.58         93.0085
   355.72         92.8247
   355.86         92.7317
   356.00         92.7647
   356.14         92.9356
   356.28         93.2278
   356.42         93.6086
   356.56         94.0382
   356.70         94.4866
   356.84         94.9277
   356.98         95.3232
   357.12         95.6278
   357.26         95.7877
   357.40         95.7551
   357.54         95.5257
   357.68         95.1319
   357.82         94.6170
   357.96         94.0275
   358.10         93.4085
   358.24         92.8082
   358.38         92.2638
   358.52         91.7901
   358.66         91.3784
   358.80         91.0159
   358.94         90.6991
   359.08         90.4241
   359.22         90.1899
   359.36         90.0055
   359.50         89.8797
   359.64         89.8198
   359.78         89.8343
   359.92         89.9270
   360.06         90.1021
   360.20         90.3568
   360.34         90.6610
   360.48         90.9626
   360.62         91.2079
   360.76         91.3545
   360.90         91.3832
   361.04         91.2960
   361.18         91.1110
   361.32         90.8587
   361.46         90.5785
   361.60         90.3072
   361.74         90.0673
   361.88         89.8656
   362.02         89.6900
   362.16         89.5047
   362.30         89.2653
   362.44         88.9401
   362.58         88.5176
   362.72         88.0076
   362.86         87.4340
   363.00         86.8301
   363.14         86.2411
   363.28         85.7250
   363.42         85.3401
   363.56         85.1217
   363.70         85.0727
   363.84         85.1744
   363.98         85.4006
   364.12         85.7206
   364.26         86.0898
   364.40         86.4479
   364.54         86.7376
   364.68         86.9181
   364.82         86.9736
   364.96         86.9161
   365.10         86.7721
   365.24         86.5673
   365.38         86.3220
   365.52         86.0534
   365.66         85.7800
   365.80         85.5217
   365.94         85.2903
   366.08         85.0857
   366.22         84.9095
   366.36         84.7760
   366.50         84.7015
   366.64         84.6855
   366.78         84.7136
   366.92         84.7780
   367.06         84.8810
   367.20         85.0216
   367.34         85.1849
   367.48         85.3501
   367.62         85.4960
   367.76         85.6006
   367.90         85.6532
   368.04         85.6562
   368.18         85.6114
   368.32         85.5135
   368.46         85.3604
   368.60         85.1618
   368.74         84.9378
   368.88         84.7051
   369.02         84.4607
   369.16         84.1861
   369.30         83.8667
   369.44         83.5056
   369.58         83.1171
   369.72         82.7124
   369.86         82.2961
   370.00         81.8794
   370.14         81.4927
   370.28         81.1726
   370.42         80.9570
   370.56         80.8892
   370.70         80.9976
   370.84         81.2739
   370.98         81.6830
   371.12         82.1800
   371.26         82.7070
   371.40         83.1966
   371.54         83.5937
   371.68         83.8709
   371.82         84.0203
   371.96         84.0371
   372.10         83.9135
   372.24         83.6447
   372.38         83.2444
   372.52         82.7548
   372.66         82.2530
   372.80         81.8375
   372.94         81.5974
   373.08         81.5989
   373.22         81.8769
   373.36         82.4182
   373.50         83.1602
   373.64         84.0166
   373.78         84.8959
   373.92         85.7074
   374.06         86.3805
   374.20         86.8841
   374.34         87.2212
   374.48         87.4111
   374.62         87.4906
   374.76         87.5221
   374.90         87.5857
   375.04         87.7665
   375.18         88.1293
   375.32         88.6912
   375.46         89.4062
   375.60         90.1721
   375.74         90.8547
   375.88         91.3108
   376.02         91.4109
   376.16         91.0813
   376.30         90.3418
   376.44         89.3002
   376.58         88.1184
   376.72         86.9797
   376.86         86.0576
   377.00         85.4879
   377.14         85.3522
   377.28         85.6792
   377.42         86.4456
   377.56         87.5762
   377.70         88.9556
   377.84         90.4397
   377.98         91.8679
   378.12         93.0812
   378.26         93.9396
   378.40         94.3337
   378.54         94.1974
   378.68         93.5257
   378.82         92.3883
   378.96         90.9099
   379.10         89.2361
   379.24         87.5172
   379.38         85.9059
   379.52         84.5538
   379.66         83.5988
   379.80         83.1426
   379.94         83.2302
   380.08         83.8459
   380.22         84.9270
   380.36         86.3692
   380.50         88.0271
   380.64         89.7253
   380.78         91.2790
   380.92         92.5317
   381.06         93.3966
   381.20         93.8721
   381.34         94.0208
   381.48         93.9335
   381.62         93.6901
   381.76         93.3462
   381.90         92.9324
   382.04         92.4432
   382.18         91.8328
   382.32         91.0317
   382.46         89.9786
   382.60         88.6478
   382.74         87.0668
   382.88         85.3154
   383.02         83.5070
   383.16         81.7774
   383.30         80.2830
   383.44         79.1879
   383.58         78.6379
   383.72         78.7332
   383.86         79.4950
   384.00         80.8535
   384.14         82.6731
   384.28         84.7843
   384.42         87.0092
   384.56         89.1748
   384.70         91.1314
   384.84         92.7776
   384.98         94.0704
   385.12         95.0111
   385.26         95.6237
   385.40         95.9453
   385.54         96.0203
   385.68         95.8916
   385.82         95.5977
   385.96         95.1773
   386.10         94.6681
   386.24         94.0978
   386.38         93.4858
   386.52         92.8498
   386.66         92.2066
   386.80         91.5702
   386.94         90.9462
   387.08         90.3249
   387.22         89.6775
   387.36         88.9584
   387.50         88.1093
   387.64         87.0708
   387.78         85.7995
   387.92         84.2903
   388.06         82.5899
   388.20         80.7893
   388.34         79.0097
   388.48         77.3864
   388.62         76.0542
   388.76         75.1341
   388.90         74.7174
   389.04         74.8592
   389.18         75.5720
   389.32         76.8124
   389.46         78.4773
   389.60         80.4215
   389.74         82.4790
   389.88         84.4865
   390.02         86.3040
   390.16         87.8301
   390.30         89.0130
   390.44         89.8532
   390.58         90.3944
   390.72         90.6992
   390.86         90.8201
   391.00         90.7923
   391.14         90.6421
   391.28         90.3955
   391.42         90.0789
   391.56         89.7103
   391.70         89.2951
   391.84         88.8282
   391.98         88.2940
   392.12         87.6741
   392.26         86.9622
   392.40         86.1758
   392.54         85.3555
   392.68         84.5571
   392.82         83.8439
   392.96         83.2779
   393.10         82.9019
   393.24         82.7289
   393.38         82.7460
   393.52         82.9265
   393.66         83.2420
   393.80         83.6628
   393.94         84.1497
   394.08         84.6530
   394.22         85.1224
   394.36         85.5157
   394.50         85.7978
   394.64         85.9427
   394.78         85.9449
   394.92         85.8210
   395.06         85.5957
   395.20         85.2806
   395.34         84.8588
   395.48         84.2832
   395.62         83.4839
   395.76         82.3906
   395.90         80.9663
   396.04         79.2291
   396.18         77.2590
   396.32         75.1878
   396.46         73.1766
   396.60         71.3911
   396.74         69.9828
   396.88         69.0721
   397.02         68.7360
   397.16         69.0000
   397.30         69.8363
   397.44         71.1657
   397.58         72.8597
   397.72         74.7541
   397.86         76.6712
   398.00         78.4450
   398.14         79.9450
   398.28         81.0939
   398.42         81.8782
   398.56         82.3435
   398.70         82.5694
   398.84         82.6421
   398.98         82.6335
   399.12         82.5890
   399.26         82.5305
   399.40         82.4631
   399.54         82.3822
   399.68         82.2775
   399.82         82.1318
   399.96         81.9256
   400.10         81.6469
   400.24         81.2959
   400.38         80.8879
   400.52         80.4497
   400.66         80.0147
   400.80         79.6179
   400.94         79.2836
   401.08         79.0133
   401.22         78.7806
   401.36         78.5413
   401.50         78.2522
   401.64         77.8861
   401.78         77.4371
   401.92         76.9190
   402.06         76.3625
   402.20         75.8101
   402.34         75.3068
   402.48         74.8936
   402.62         74.6060
   402.76         74.4704
   402.90         74.4962
   403.04         74.6689
   403.18         74.9535
   403.32         75.3031
   403.46         75.6624
   403.60         75.9763
   403.74         76.2061
   403.88         76.3402
   404.02         76.3961
   404.16         76.4066
   404.30         76.4070
   404.44         76.4247
   404.58         76.4720
   404.72         76.5450
   404.86         76.6294
   405.00         76.7086
   405.14         76.7669
   405.28         76.7896
   405.42         76.7586
   405.56         76.6540
   405.70         76.4584
   405.84         76.1599
   405.98         75.7551
   406.12         75.2528
   406.26         74.6743
   406.40         74.0508
   406.54         73.4200
   406.68         72.8227
   406.82         72.2927
   406.96         71.8530
   407.10         71.5124
   407.24         71.2651
   407.38         71.0950
   407.52         70.9829
   407.66         70.9063
   407.80         70.8402
   407.94         70.7617
   408.08         70.6523
   408.22         70.4959
   408.36         70.2747
   408.50         69.9660
   408.64         69.5443
   408.78         68.9809
   408.92         68.2465
   409.06         67.3237
   409.20         66.2183
   409.34         64.9634
   409.48         63.6192
   409.62         62.2706
   409.76         61.0197
   409.90         59.9733
   410.04         59.2277
   410.18         58.8539
   410.32         58.8852
   410.46         59.3109
   410.60         60.0733
   410.74         61.0751
   410.88         62.1996
   411.02         63.3311
   411.16         64.3723
   411.30         65.2554
   411.44         65.9486
   411.58         66.4582
   411.72         66.8221
   411.86         67.0913
   412.00         67.3128
   412.14         67.5197
   412.28         67.7274
   412.42         67.9357
   412.56         68.1328
   412.70         68.2995
   412.84         68.4131
   412.98         68.4508
   413.12         68.3957
   413.26         68.2440
   413.40         68.0130
   413.54         67.7408
   413.68         67.4736
   413.82         67.2547
   413.96         67.1179
   414.10         67.0840
   414.24         67.1566
   414.38         67.3239
   414.52         67.5651
   414.66         67.8554
   414.80         68.1668
   414.94         68.4684
   415.08         68.7320
   415.22         68.9340
   415.36         69.0555
   415.50         69.0826
   415.64         69.0120
   415.78         68.8523
   415.92         68.6245
   416.06         68.3586
   416.20         68.0834
   416.34         67.8179
   416.48         67.5717
   416.62         67.3468
   416.76         67.1416
   416.90         66.9527
   417.04         66.7761
   417.18         66.6088
   417.32         66.4495
   417.46         66.2985
   417.60         66.1567
   417.74         66.0243
   417.88         65.9037
   418.02         65.7987
   418.16         65.7126
   418.30         65.6519
   418.44         65.6227
   418.58         65.6270
   418.72         65.6622
   418.86         65.7179
   419.00         65.7806
   419.14         65.8388
   419.28         65.8844
   419.42         65.9114
   419.56         65.9146
   419.70         65.8928
   419.84         65.8524
   419.98         65.7999
   420.12         65.7370
   420.26         65.6656
   420.40         65.5949
   420.54         65.5384
   420.68         65.5044
   420.82         65.4950
   420.96         65.5081
   421.10         65.5350
   421.24         65.5620
   421.38         65.5758
   421.52         65.5657
   421.66         65.5255
   421.80         65.4539
   421.94         65.3510
   422.08         65.2178
   422.22         65.0605
   422.36         64.8907
   422.50         64.7223
   422.64         64.5676
   422.78         64.4387
   422.92         64.3471
   423.06         64.2991
   423.20         64.2927
   423.34         64.3188
   423.48         64.3651
   423.62         64.4170
   423.76         64.4599
   423.90         64.4799
   424.04         64.4614
   424.18         64.3899
   424.32         64.2582
   424.46         64.0679
   424.60         63.8291
   424.74         63.5557
   424.88         63.2638
   425.02         62.9717
   425.16         62.6961
   425.30         62.4480
   425.44         62.2285
   425.58         62.0307
   425.72         61.8485
   425.86         61.6789
   426.00         61.5207
   426.14         61.3752
   426.28         61.2470
   426.42         61.1388
   426.56         61.0471
   426.70         60.9663
   426.84         60.8961
   426.98         60.8366
   427.12         60.7804
   427.26         60.7149
   427.40         60.6283
   427.54         60.5179
   427.68         60.3903
   427.82         60.2542
   427.96         60.1191
   428.10         59.9941
   428.24         59.8911
   428.38         59.8244
   428.52         59.8045
   428.66         59.8350
   428.80         59.9113
   428.94         60.0168
   429.08         60.1280
   429.22         60.2280
   429.36         60.3114
   429.50         60.3794
   429.64         60.4328
   429.78         60.4734
   429.92         60.5061
   430.06         60.5357
   430.20         60.5607
   430.34         60.5705
   430.48         60.5488
   430.62         60.4780
   430.76         60.3465
   430.90         60.1530
   431.04         59.9072
   431.18         59.6272
   431.32         59.3347
   431.46         59.0486
   431.60         58.7854
   431.74         58.5602
   431.88         58.3809
   432.02         58.2390
   432.16         58.1100
   432.30         57.9555
   432.44         57.7295
   432.58         57.3843
   432.72         56.8773
   432.86         56.1785
   433.00         55.2798
   433.14         54.2037
   433.28         53.0039
   433.42         51.7573
   433.56         50.5504
   433.70         49.4687
   433.84         48.5885
   433.98         47.9694
   434.12         47.6496
   434.26         47.6436
   434.40         47.9403
   434.54         48.5064
   434.68         49.2924
   434.82         50.2370
   434.96         51.2692
   435.10         52.3180
   435.24         53.3234
   435.38         54.2419
   435.52         55.0475
   435.66         55.7290
   435.80         56.2886
   435.94         56.7340
   436.08         57.0734
   436.22         57.3158
   436.36         57.4746
   436.50         57.5657
   436.64         57.6057
   436.78         57.6085
   436.92         57.5835
   437.06         57.5368
   437.20         57.4717
   437.34         57.3824
   437.48         57.2558
   437.62         57.0798
   437.76         56.8501
   437.90         56.5713
   438.04         56.2554
   438.18         55.9204
   438.32         55.5906
   438.46         55.2934
   438.60         55.0546
   438.74         54.8939
   438.88         54.8231
   439.02         54.8430
   439.16         54.9427
   439.30         55.1046
   439.44         55.3072
   439.58         55.5281
   439.72         55.7434
   439.86         55.9237
   440.00         56.0383
   440.14         56.0655
   440.28         55.9968
   440.42         55.8346
   440.56         55.5923
   440.70         55.2940
   440.84         54.9673
   440.98         54.6357
   441.12         54.3173
   441.26         54.0248
   441.40         53.7653
   441.54         53.5410
   441.68         53.3510
   441.82         53.1936
   441.96         53.0637
   442.10         52.9516
   442.24         52.8448
   442.38         52.7293
   442.52         52.5941
   442.66         52.4415
   442.80         52.2871
   442.94         52.1515
   443.08         52.0562
   443.22         52.0179
   443.36         52.0415
   443.50         52.1171
   443.64         52.2274
   443.78         52.3569
   443.92         52.4927
   444.06         52.6237
   444.20         52.7394
   444.34         52.8316
   444.48         52.8980
   444.62         52.9451
   444.76         52.9850
   444.90         53.0296
   445.04         53.0884
   445.18         53.1682
   445.32         53.2712
   445.46         53.3848
   445.60         53.4803
   445.74         53.5229
   445.88         53.4761
   446.02         53.3105
   446.16         53.0166
   446.30         52.6100
   446.44         52.1243
   446.58         51.5987
   446.72         51.0765
   446.86         50.6066
   447.00         50.2365
   447.14         50.0046
   447.28         49.9322
   447.42         50.0210
   447.56         50.2570
   447.70         50.6128
   447.84         51.0493
   447.98         51.5201
   448.12         51.9772
   448.26         52.3795
   448.40         52.7014
   448.54         52.9322
   448.68         53.0734
   448.82         53.1354
   448.96         53.1327
   449.10         53.0773
   449.24         52.9782
   449.38         52.8494
   449.52         52.7081
   449.66         52.5661
   449.80         52.4330
   449.94         52.3185
   450.08         52.2291
   450.22         52.1661
   450.36         52.1260
   450.50         52.1023
   450.64         52.0887
   450.78         52.0788
   450.92         52.0646
   451.06         52.0400
   451.20         52.0023
   451.34         51.9507
   451.48         51.8856
   451.62         51.8088
   451.76         51.7249
   451.90         51.6374
   452.04         51.5471
   452.18         51.4544
   452.32         51.3576
   452.46         51.2588
   452.60         51.1620
   452.74         51.0688
   452.88         50.9814
   453.02         50.9023
   453.16         50.8305
   453.30         50.7640
   453.44         50.7007
   453.58         50.6362
   453.72         50.5644
   453.86         50.4783
   454.00         50.3701
   454.14         50.2323
   454.28         50.0618
   454.42         49.8636
   454.56         49.6465
   454.70         49.4253
   454.84         49.2202
   454.98         49.0472
   455.12         48.9152
   455.26         48.8242
   455.40         48.7680
   455.54         48.7386
   455.68         48.7268
   455.82         48.7241
   455.96         48.7267
   456.10         48.7307
   456.24         48.7266
   456.38         48.7071
   456.52         48.6745
   456.66         48.6358
   456.80         48.5992
   456.94         48.5767
