# File HD13256
# Wavelength [nm]    Normalized Amplitude
   349.70         3255.5599
   349.84         3267.6062
   349.98         3284.4190
   350.12         3303.8410
   350.26         3324.1376
   350.40         3344.5332
   350.54         3364.9256
   350.68         3384.7649
   350.82         3402.1629
   350.96         3414.2028
   351.10         3418.4897
   351.24         3414.2028
   351.38         3402.1629
   351.52         3384.7649
   351.66         3364.9256
   351.80         3344.5332
   351.94         3324.1376
   352.08         3303.8410
   352.22         3284.4190
   352.36         3267.6062
   352.50         3255.5599
   352.64         3249.9365
   352.78         3251.5556
   352.92         3260.0752
   353.06         3273.7094
   353.20         3290.4260
   353.34         3308.8116
   353.48         3327.7344
   353.62         3346.3626
   353.76         3364.5956
   353.90         3382.9122
   354.04         3402.1894
   354.18         3423.1904
   354.32         3445.2691
   354.46         3466.4797
   354.60         3485.3551
   354.74         3501.8343
   354.88         3516.2790
   355.02         3528.0559
   355.16         3535.9045
   355.30         3539.0467
   355.44         3537.3757
   355.58         3531.3119
   355.72         3522.0509
   355.86         3511.6103
   356.00         3501.5750
   356.14         3492.7852
   356.28         3486.4783
   356.42         3484.7180
   356.56         3489.6367
   356.70         3501.5482
   356.84         3518.2393
   356.98         3536.0498
   357.12         3551.5452
   357.26         3562.0294
   357.40         3564.6111
   357.54         3556.5344
   357.68         3536.6075
   357.82         3505.6627
   357.96         3465.5397
   358.10         3418.3308
   358.24         3366.6160
   358.38         3313.7348
   358.52         3263.5152
   358.66         3219.6004
   358.80         3185.2908
   358.94         3162.8582
   359.08         3152.3230
   359.22         3151.5424
   359.36         3157.4653
   359.50         3167.7354
   359.64         3181.7462
   359.78         3199.1761
   359.92         3218.0864
   360.06         3235.6545
   360.20         3249.6787
   360.34         3258.8326
   360.48         3262.4503
   360.62         3260.8653
   360.76         3255.4440
   360.90         3248.1855
   361.04         3241.2050
   361.18         3236.2502
   361.32         3234.4327
   361.46         3236.1604
   361.60         3241.2617
   361.74         3249.0489
   361.88         3258.0328
   362.02         3265.6040
   362.16         3268.1165
   362.30         3262.4415
   362.44         3246.5847
   362.58         3219.4675
   362.72         3182.0778
   362.86         3137.7452
   363.00         3091.1568
   363.14         3047.5434
   363.28         3011.6051
   363.42         2986.1793
   363.56         2972.1961
   363.70         2969.3381
   363.84         2976.2406
   363.98         2990.6520
   364.12         3009.8596
   364.26         3031.0852
   364.40         3051.4337
   364.54         3068.1449
   364.68         3079.6539
   364.82         3086.2241
   364.96         3089.5127
   365.10         3091.2902
   365.24         3092.9193
   365.38         3095.2636
   365.52         3098.1743
   365.66         3100.8184
   365.80         3102.4156
   365.94         3102.3914
   366.08         3100.2560
   366.22         3095.9372
   366.36         3090.1489
   366.50         3084.0891
   366.64         3079.0018
   366.78         3075.8917
   366.92         3075.4156
   367.06         3077.8476
   367.20         3083.0672
   367.34         3090.6785
   367.48         3099.9437
   367.62         3109.6426
   367.76         3118.1334
   367.90         3123.2414
   368.04         3122.6483
   368.18         3115.0662
   368.32         3100.9070
   368.46         3081.7500
   368.60         3059.4483
   368.74         3035.7201
   368.88         3011.9924
   369.02         2989.3838
   369.16         2968.5363
   369.30         2949.6577
   369.44         2933.1912
   369.58         2919.9142
   369.72         2910.0766
   369.86         2903.1559
   370.00         2898.6842
   370.14         2897.0038
   370.28         2899.0672
   370.42         2905.4850
   370.56         2916.3042
   370.70         2931.2636
   370.84         2949.3002
   370.98         2968.5457
   371.12         2987.1799
   371.26         3003.8142
   371.40         3017.2315
   371.54         3026.2629
   371.68         3030.1980
   371.82         3028.9404
   371.96         3022.8750
   372.10         3012.9578
   372.24         3000.4238
   372.38         2986.4216
   372.52         2972.2729
   372.66         2959.9035
   372.80         2951.4394
   372.94         2948.2060
   373.08         2950.5247
   373.22         2958.0877
   373.36         2969.7925
   373.50         2983.8816
   373.64         2998.4790
   373.78         3011.7791
   373.92         3022.0222
   374.06         3027.6527
   374.20         3027.9799
   374.34         3023.4661
   374.48         3015.1454
   374.62         3004.1308
   374.76         2991.6962
   374.90         2979.4750
   375.04         2969.7082
   375.18         2964.8326
   375.32         2966.5244
   375.46         2974.8285
   375.60         2987.8505
   375.74         3002.2966
   375.88         3014.3669
   376.02         3020.8854
   376.16         3020.3231
   376.30         3012.9970
   376.44         3000.9115
   376.58         2987.1999
   376.72         2974.9591
   376.86         2966.5203
   377.00         2963.1085
   377.14         2964.6391
   377.28         2970.4411
   377.42         2980.1105
   377.56         2993.2759
   377.70         3009.0009
   377.84         3025.4845
   377.98         3040.5111
   378.12         3051.9662
   378.26         3058.2537
   378.40         3058.6774
   378.54         3053.4430
   378.68         3043.7089
   378.82         3031.0570
   378.96         3017.1734
   379.10         3003.8210
   379.24         2992.3631
   379.38         2983.8871
   379.52         2979.1662
   379.66         2978.4009
   379.80         2981.4482
   379.94         2988.1444
   380.08         2998.1130
   380.22         3010.3170
   380.36         3023.1141
   380.50         3034.5711
   380.64         3042.6735
   380.78         3045.5391
   380.92         3042.1752
   381.06         3033.0776
   381.20         3020.2527
   381.34         3006.7496
   381.48         2995.2190
   381.62         2987.0563
   381.76         2982.5148
   381.90         2980.7617
   382.04         2980.0303
   382.18         2977.6832
   382.32         2971.0479
   382.46         2958.4564
   382.60         2939.4918
   382.74         2914.8188
   382.88         2885.6215
   383.02         2853.4146
   383.16         2820.4990
   383.30         2789.8520
   383.44         2764.4393
   383.58         2746.9615
   383.72         2739.3495
   383.86         2741.9545
   384.00         2753.4300
   384.14         2771.2727
   384.28         2792.6909
   384.42         2815.3629
   384.56         2837.4145
   384.70         2857.3235
   384.84         2874.1197
   384.98         2887.2751
   385.12         2896.3756
   385.26         2900.9976
   385.40         2900.8993
   385.54         2896.3104
   385.68         2888.0621
   385.82         2877.3751
   385.96         2865.5600
   386.10         2853.9520
   386.24         2843.7998
   386.38         2835.8525
   386.52         2830.3815
   386.66         2827.3277
   386.80         2826.0797
   386.94         2825.5384
   387.08         2824.4305
   387.22         2821.2297
   387.36         2814.0102
   387.50         2800.8700
   387.64         2780.5797
   387.78         2753.1431
   387.92         2720.2035
   388.06         2684.7822
   388.20         2650.3830
   388.34         2620.0527
   388.48         2595.8450
   388.62         2578.8251
   388.76         2569.1663
   388.90         2566.2846
   389.04         2569.1234
   389.18         2576.5582
   389.32         2587.4329
   389.46         2600.3331
   389.60         2613.7440
   389.74         2626.4310
   389.88         2637.5734
   390.02         2646.6382
   390.16         2653.4895
   390.30         2658.6802
   390.44         2663.3662
   390.58         2668.5891
   390.72         2674.5276
   390.86         2680.4144
   391.00         2685.1326
   391.14         2687.7821
   391.28         2687.8223
   391.42         2685.2148
   391.56         2680.4940
   391.70         2674.5282
   391.84         2667.8695
   391.98         2659.9438
   392.12         2649.4026
   392.26         2635.3347
   392.40         2617.8325
   392.54         2597.5692
   392.68         2575.2900
   392.82         2552.0745
   392.96         2529.5760
   393.10         2509.4977
   393.24         2493.0684
   393.38         2481.2453
   393.52         2474.9680
   393.66         2475.0368
   393.80         2481.6948
   393.94         2494.2656
   394.08         2511.4674
   394.22         2531.5968
   394.36         2552.2281
   394.50         2570.4242
   394.64         2583.9757
   394.78         2592.3929
   394.92         2596.2150
   395.06         2595.9122
   395.20         2591.5948
   395.34         2583.1666
   395.48         2570.3393
   395.62         2552.3470
   395.76         2528.2077
   395.90         2497.6536
   396.04         2461.8622
   396.18         2423.3190
   396.32         2385.0701
   396.46         2350.1399
   396.60         2321.3165
   396.74         2301.0468
   396.88         2290.9601
   397.02         2291.6448
   397.16         2302.8774
   397.30         2323.5044
   397.44         2351.1202
   397.58         2382.2236
   397.72         2413.0849
   397.86         2440.5853
   398.00         2462.4072
   398.14         2476.7939
   398.28         2482.9024
   398.42         2481.4685
   398.56         2474.4899
   398.70         2464.3359
   398.84         2452.9816
   398.98         2441.6659
   399.12         2431.1098
   399.26         2421.7835
   399.40         2413.8930
   399.54         2407.4225
   399.68         2402.3422
   399.82         2398.6258
   399.96         2396.2846
   400.10         2395.5404
   400.24         2396.6816
   400.38         2399.7284
   400.52         2404.1551
   400.66         2408.9778
   400.80         2413.1198
   400.94         2415.7476
   401.08         2416.1732
   401.22         2413.6867
   401.36         2407.7291
   401.50         2397.9804
   401.64         2384.6068
   401.78         2368.5555
   401.92         2351.4708
   402.06         2335.2211
   402.20         2321.4018
   402.34         2310.9814
   402.48         2304.3437
   402.62         2301.4142
   402.76         2301.6034
   402.90         2303.8797
   403.04         2306.9729
   403.18         2309.6894
   403.32         2311.2225
   403.46         2311.1212
   403.60         2309.1873
   403.74         2305.4634
   403.88         2300.3187
   404.02         2294.5115
   404.16         2288.8402
   404.30         2283.9774
   404.44         2280.4261
   404.58         2278.2696
   404.72         2277.0386
   404.86         2275.8944
   405.00         2274.0019
   405.14         2270.9052
   405.28         2266.6578
   405.42         2261.6168
   405.56         2256.1606
   405.70         2250.4292
   405.84         2244.1860
   405.98         2237.0925
   406.12         2228.8251
   406.26         2218.8496
   406.40         2206.4906
   406.54         2191.5238
   406.68         2174.4917
   406.82         2156.2662
   406.96         2137.7724
   407.10         2119.8857
   407.24         2103.3243
   407.38         2088.6033
   407.52         2076.0575
   407.66         2066.0120
   407.80         2058.8677
   407.94         2054.9029
   408.08         2053.9210
   408.22         2055.3132
   408.36         2058.2972
   408.50         2061.9374
   408.64         2065.2435
   408.78         2066.9621
   408.92         2065.8113
   409.06         2061.2286
   409.20         2053.4543
   409.34         2043.1003
   409.48         2030.9183
   409.62         2017.9367
   409.76         2005.4702
   409.90         1994.8397
   410.04         1987.1125
   410.18         1983.0719
   410.32         1983.1185
   410.46         1987.0028
   410.60         1993.6914
   410.74         2001.7414
   410.88         2009.8240
   411.02         2016.8105
   411.16         2021.8528
   411.30         2024.6410
   411.44         2025.4993
   411.58         2025.4106
   411.72         2025.6219
   411.86         2027.0546
   412.00         2030.2194
   412.14         2035.2838
   412.28         2041.9184
   412.42         2049.3515
   412.56         2056.7159
   412.70         2063.1855
   412.84         2067.8358
   412.98         2069.6023
   413.12         2067.6244
   413.26         2061.7164
   413.40         2052.6475
   413.54         2041.9050
   413.68         2031.0959
   413.82         2021.5793
   413.96         2014.2892
   414.10         2009.6578
   414.24         2007.6759
   414.38         2007.9992
   414.52         2010.1066
   414.66         2013.4516
   414.80         2017.4155
   414.94         2021.2115
   415.08         2024.0765
   415.22         2025.4290
   415.36         2024.7744
   415.50         2021.7975
   415.64         2016.6746
   415.78         2010.1423
   415.92         2003.1873
   416.06         1996.6080
   416.20         1990.6642
   416.34         1985.0762
   416.48         1979.3316
   416.62         1972.9549
   416.76         1965.6723
   416.90         1957.4747
   417.04         1948.6066
   417.18         1939.4662
   417.32         1930.3732
   417.46         1921.4517
   417.60         1912.7356
   417.74         1904.3145
   417.88         1896.3227
   418.02         1888.8133
   418.16         1881.8311
   418.30         1875.5531
   418.44         1870.1240
   418.58         1865.5686
   418.72         1861.8777
   418.86         1859.0039
   419.00         1856.8419
   419.14         1855.2043
   419.28         1853.9236
   419.42         1853.0150
   419.56         1852.5601
   419.70         1852.4933
   419.84         1852.6034
   419.98         1852.6593
   420.12         1852.5773
   420.26         1852.4656
   420.40         1852.5115
   420.54         1852.8695
   420.68         1853.6686
   420.82         1855.1510
   420.96         1857.6073
   421.10         1861.0516
   421.24         1865.1442
   421.38         1869.3156
   421.52         1872.9032
   421.66         1875.3573
   421.80         1876.4183
   421.94         1876.1243
   422.08         1874.6116
   422.22         1871.9402
   422.36         1868.1931
   422.50         1863.5852
   422.64         1858.4184
   422.78         1853.0711
   422.92         1848.0252
   423.06         1843.8089
   423.20         1840.8447
   423.34         1839.3737
   423.48         1839.4348
   423.62         1840.7333
   423.76         1842.6720
   423.90         1844.6111
   424.04         1846.0425
   424.18         1846.7062
   424.32         1846.6376
   424.46         1845.9560
   424.60         1844.5666
   424.74         1842.2383
   424.88         1838.8466
   425.02         1834.4176
   425.16         1829.0447
   425.30         1822.8869
   425.44         1816.2286
   425.58         1809.4672
   425.72         1803.0320
   425.86         1797.2153
   426.00         1792.1239
   426.14         1787.7374
   426.28         1783.9174
   426.42         1780.4604
   426.56         1777.2250
   426.70         1774.1634
   426.84         1771.3598
   426.98         1768.9664
   427.12         1766.9116
   427.26         1764.9535
   427.40         1763.0514
   427.54         1761.4452
   427.68         1760.3657
   427.82         1759.8890
   427.96         1760.0448
   428.10         1760.8839
   428.24         1762.4293
   428.38         1764.4760
   428.52         1766.5715
   428.66         1768.2636
   428.80         1769.2202
   428.94         1769.2547
   429.08         1768.3490
   429.22         1766.6701
   429.36         1764.4998
   429.50         1762.1729
   429.64         1760.0493
   429.78         1758.4470
   429.92         1757.6282
   430.06         1757.7732
   430.20         1758.8067
   430.34         1760.1870
   430.48         1761.0327
   430.62         1760.3408
   430.76         1757.3299
   430.90         1751.6829
   431.04         1743.3897
   431.18         1732.7703
   431.32         1720.6170
   431.46         1708.1047
   431.60         1696.5365
   431.74         1687.0988
   431.88         1680.6980
   432.02         1677.8386
   432.16         1678.5164
   432.30         1682.2344
   432.44         1687.9827
   432.58         1694.1365
   432.72         1698.7401
   432.86         1700.0189
   433.00         1696.8298
   433.14         1688.9441
   433.28         1676.9648
   433.42         1662.0353
   433.56         1645.2963
   433.70         1627.6742
   433.84         1610.1207
   433.98         1593.7056
   434.12         1579.5389
   434.26         1568.6353
   434.40         1561.8273
   434.54         1559.6908
   434.68         1562.4617
   434.82         1569.9301
   434.96         1581.3917
   435.10         1595.8226
   435.24         1612.1160
   435.38         1629.1665
   435.52         1645.9094
   435.66         1661.4132
   435.80         1674.8821
   435.94         1685.6559
   436.08         1693.3653
   436.22         1698.0241
   436.36         1700.0375
   436.50         1700.1066
   436.64         1699.0739
   436.78         1697.6717
   436.92         1696.2234
   437.06         1694.6431
   437.20         1692.5446
   437.34         1689.3382
   437.48         1684.4296
   437.62         1677.4870
   437.76         1668.6295
   437.90         1658.2910
   438.04         1646.9403
   438.18         1635.1843
   438.32         1623.9487
   438.46         1614.2255
   438.60         1606.7096
   438.74         1601.6693
   438.88         1599.0401
   439.02         1598.5678
   439.16         1599.8606
   439.30         1602.4395
   439.44         1605.8100
   439.58         1609.4878
   439.72         1612.9881
   439.86         1615.8460
   440.00         1617.7181
   440.14         1618.3355
   440.28         1617.3783
   440.42         1614.3872
   440.56         1608.7642
   440.70         1600.0539
   440.84         1588.2597
   440.98         1573.8242
   441.12         1557.3526
   441.26         1539.4419
   441.40         1520.6975
   441.54         1501.7942
   441.68         1483.4446
   441.82         1466.3411
   441.96         1451.0959
   442.10         1438.1148
   442.24         1427.4986
   442.38         1419.1266
   442.52         1412.8467
   442.66         1408.5592
   442.80         1406.1968
   442.94         1405.8095
   443.08         1407.6066
   443.22         1411.8306
   443.36         1418.5968
   443.50         1427.7100
   443.64         1438.6748
   443.78         1450.8412
   443.92         1463.5077
   444.06         1475.9825
   444.20         1487.6833
   444.34         1498.2453
   444.48         1507.5647
   444.62         1515.7299
   444.76         1522.9183
   444.90         1529.3634
   445.04         1535.3226
   445.18         1540.9542
   445.32         1546.2672
   445.46         1551.0793
   445.60         1554.9586
   445.74         1557.2635
   445.88         1557.2741
   446.02         1554.5587
   446.16         1549.2361
   446.30         1541.9327
   446.44         1533.5836
   446.58         1525.1872
   446.72         1517.6754
   446.86         1511.8791
   447.00         1508.4488
   447.14         1507.7692
   447.28         1509.8555
   447.42         1514.4497
   447.56         1521.2022
   447.70         1529.6064
   447.84         1539.0035
   447.98         1548.6719
   448.12         1557.8267
   448.26         1565.7431
   448.40         1571.9618
   448.54         1576.3390
   448.68         1578.9187
   448.82         1579.7909
   448.96         1579.0977
   449.10         1577.0711
   449.24         1573.9608
