# File HD14330
# Wavelength [nm]    Normalized Amplitude
   349.70         4.1408
   349.84         4.1719
   349.98         4.2385
   350.12         4.3181
   350.26         4.3867
   350.40         4.4285
   350.54         4.4403
   350.68         4.4261
   350.82         4.3964
   350.96         4.3672
   351.10         4.3549
   351.24         4.3672
   351.38         4.3964
   351.52         4.4261
   351.66         4.4403
   351.80         4.4285
   351.94         4.3867
   352.08         4.3181
   352.22         4.2385
   352.36         4.1719
   352.50         4.1408
   352.64         4.1643
   352.78         4.2564
   352.92         4.4291
   353.06         4.6904
   353.20         5.0379
   353.34         5.4504
   353.48         5.8871
   353.62         6.3007
   353.76         6.6491
   353.90         6.8984
   354.04         7.0272
   354.18         7.0274
   354.32         6.9050
   354.46         6.6793
   354.60         6.3754
   354.74         6.0237
   354.88         5.6598
   355.02         5.3172
   355.16         5.0175
   355.30         4.7672
   355.44         4.5675
   355.58         4.4196
   355.72         4.3159
   355.86         4.2347
   356.00         4.1499
   356.14         4.0488
   356.28         3.9389
   356.42         3.8318
   356.56         3.7291
   356.70         3.6245
   356.84         3.5131
   356.98         3.4012
   357.12         3.3008
   357.26         3.2217
   357.40         3.1735
   357.54         3.1628
   357.68         3.1888
   357.82         3.2491
   357.96         3.3462
   358.10         3.4832
   358.24         3.6537
   358.38         3.8431
   358.52         4.0397
   358.66         4.2367
   358.80         4.4291
   358.94         4.6110
   359.08         4.7745
   359.22         4.9094
   359.36         5.0076
   359.50         5.0712
   359.64         5.1095
   359.78         5.1300
   359.92         5.1354
   360.06         5.1249
   360.20         5.0998
   360.34         5.0676
   360.48         5.0329
   360.62         4.9895
   360.76         4.9307
   360.90         4.8643
   361.04         4.8102
   361.18         4.7852
   361.32         4.7972
   361.46         4.8500
   361.60         4.9397
   361.74         5.0518
   361.88         5.1658
   362.02         5.2671
   362.16         5.3504
   362.30         5.4101
   362.44         5.4427
   362.58         5.4547
   362.72         5.4595
   362.86         5.4732
   363.00         5.5068
   363.14         5.5642
   363.28         5.6494
   363.42         5.7671
   363.56         5.9143
   363.70         6.0787
   363.84         6.2441
   363.98         6.3976
   364.12         6.5326
   364.26         6.6477
   364.40         6.7487
   364.54         6.8441
   364.68         6.9391
   364.82         7.0339
   364.96         7.1243
   365.10         7.2071
   365.24         7.2796
   365.38         7.3354
   365.52         7.3698
   365.66         7.3849
   365.80         7.3880
   365.94         7.3856
   366.08         7.3788
   366.22         7.3700
   366.36         7.3675
   366.50         7.3788
   366.64         7.4063
   366.78         7.4486
   366.92         7.5014
   367.06         7.5558
   367.20         7.5972
   367.34         7.6116
   367.48         7.5921
   367.62         7.5399
   367.76         7.4639
   367.90         7.3752
   368.04         7.2824
   368.18         7.1917
   368.32         7.1065
   368.46         7.0323
   368.60         6.9806
   368.74         6.9651
   368.88         6.9931
   369.02         7.0603
   369.16         7.1521
   369.30         7.2488
   369.44         7.3293
   369.58         7.3731
   369.72         7.3633
   369.86         7.2941
   370.00         7.1750
   370.14         7.0264
   370.28         6.8723
   370.42         6.7314
   370.56         6.6138
   370.70         6.5219
   370.84         6.4538
   370.98         6.4054
   371.12         6.3695
   371.26         6.3360
   371.40         6.2913
   371.54         6.2221
   371.68         6.1220
   371.82         5.9935
   371.96         5.8452
   372.10         5.6876
   372.24         5.5315
   372.38         5.3876
   372.52         5.2645
   372.66         5.1661
   372.80         5.0916
   372.94         5.0373
   373.08         4.9998
   373.22         4.9772
   373.36         4.9667
   373.50         4.9640
   373.64         4.9679
   373.78         4.9797
   373.92         5.0027
   374.06         5.0391
   374.20         5.0901
   374.34         5.1584
   374.48         5.2472
   374.62         5.3583
   374.76         5.4901
   374.90         5.6406
   375.04         5.8090
   375.18         5.9966
   375.32         6.2051
   375.46         6.4317
   375.60         6.6673
   375.74         6.9006
   375.88         7.1240
   376.02         7.3329
   376.16         7.5258
   376.30         7.7046
   376.44         7.8686
   376.58         8.0170
   376.72         8.1523
   376.86         8.2808
   377.00         8.4079
   377.14         8.5330
   377.28         8.6491
   377.42         8.7462
   377.56         8.8163
   377.70         8.8557
   377.84         8.8626
   377.98         8.8331
   378.12         8.7592
   378.26         8.6346
   378.40         8.4599
   378.54         8.2420
   378.68         7.9902
   378.82         7.7179
   378.96         7.4451
   379.10         7.1964
   379.24         6.9953
   379.38         6.8566
   379.52         6.7864
   379.66         6.7834
   379.80         6.8377
   379.94         6.9360
   380.08         7.0670
   380.22         7.2190
   380.36         7.3782
   380.50         7.5305
   380.64         7.6597
   380.78         7.7491
   380.92         7.7876
   381.06         7.7725
   381.20         7.7073
   381.34         7.5975
   381.48         7.4496
   381.62         7.2728
   381.76         7.0775
   381.90         6.8745
   382.04         6.6752
   382.18         6.4945
   382.32         6.3490
   382.46         6.2518
   382.60         6.2118
   382.74         6.2319
   382.88         6.3105
   383.02         6.4441
   383.16         6.6240
   383.30         6.8345
   383.44         7.0576
   383.58         7.2789
   383.72         7.4875
   383.86         7.6730
   384.00         7.8260
   384.14         7.9435
   384.28         8.0272
   384.42         8.0774
   384.56         8.0919
   384.70         8.0705
   384.84         8.0187
   384.98         7.9458
   385.12         7.8599
   385.26         7.7670
   385.40         7.6748
   385.54         7.5932
   385.68         7.5298
   385.82         7.4875
   385.96         7.4677
   386.10         7.4729
   386.24         7.5034
   386.38         7.5518
   386.52         7.6049
   386.66         7.6496
   386.80         7.6754
   386.94         7.6733
   387.08         7.6381
   387.22         7.5716
   387.36         7.4808
   387.50         7.3756
   387.64         7.2689
   387.78         7.1752
   387.92         7.1101
   388.06         7.0893
   388.20         7.1204
   388.34         7.2020
   388.48         7.3283
   388.62         7.4911
   388.76         7.6788
   388.90         7.8788
   389.04         8.0808
   389.18         8.2785
   389.32         8.4672
   389.46         8.6419
   389.60         8.7986
   389.74         8.9373
   389.88         9.0586
   390.02         9.1620
   390.16         9.2490
   390.30         9.3219
   390.44         9.3791
   390.58         9.4145
   390.72         9.4159
   390.86         9.3664
   391.00         9.2549
   391.14         9.0836
   391.28         8.8608
   391.42         8.5944
   391.56         8.2919
   391.70         7.9600
   391.84         7.6050
   391.98         7.2371
   392.12         6.8708
   392.26         6.5207
   392.40         6.1971
   392.54         5.9049
   392.68         5.6463
   392.82         5.4236
   392.96         5.2399
   393.10         5.0989
   393.24         5.0075
   393.38         4.9734
   393.52         5.0042
   393.66         5.1080
   393.80         5.2910
   393.94         5.5497
   394.08         5.8739
   394.22         6.2521
   394.36         6.6695
   394.50         7.1075
   394.64         7.5453
   394.78         7.9561
   394.92         8.3076
   395.06         8.5698
   395.20         8.7225
   395.34         8.7547
   395.48         8.6632
   395.62         8.4524
   395.76         8.1360
   395.90         7.7374
   396.04         7.2894
   396.18         6.8318
   396.32         6.4093
   396.46         6.0653
   396.60         5.8354
   396.74         5.7461
   396.88         5.8113
   397.02         6.0283
   397.16         6.3856
   397.30         6.8670
   397.44         7.4503
   397.58         8.1085
   397.72         8.8151
   397.86         9.5438
   398.00         10.2661
   398.14         10.9530
   398.28         11.5790
   398.42         12.1261
   398.56         12.5872
   398.70         12.9690
   398.84         13.2931
   398.98         13.5881
   399.12         13.8797
   399.26         14.1833
   399.40         14.5050
   399.54         14.8444
   399.68         15.2006
   399.82         15.5735
   399.96         15.9589
   400.10         16.3478
   400.24         16.7310
   400.38         17.1007
   400.52         17.4465
   400.66         17.7561
   400.80         18.0196
   400.94         18.2313
   401.08         18.3907
   401.22         18.5032
   401.36         18.5813
   401.50         18.6376
   401.64         18.6751
   401.78         18.6851
   401.92         18.6507
   402.06         18.5569
   402.20         18.4012
   402.34         18.1982
   402.48         17.9781
   402.62         17.7780
   402.76         17.6289
   402.90         17.5479
   403.04         17.5362
   403.18         17.5801
   403.32         17.6576
   403.46         17.7478
   403.60         17.8373
   403.74         17.9253
   403.88         18.0225
   404.02         18.1404
   404.16         18.2793
   404.30         18.4251
   404.44         18.5575
   404.58         18.6622
   404.72         18.7403
   404.86         18.8055
   405.00         18.8660
   405.14         18.9161
   405.28         18.9374
   405.42         18.9094
   405.56         18.8223
   405.70         18.6778
   405.84         18.4856
   405.98         18.2665
   406.12         18.0515
   406.26         17.8685
   406.40         17.7277
   406.54         17.6198
   406.68         17.5268
   406.82         17.4372
   406.96         17.3541
   407.10         17.2914
   407.24         17.2681
   407.38         17.3065
   407.52         17.4303
   407.66         17.6614
   407.80         18.0172
   407.94         18.5042
   408.08         19.1116
   408.22         19.8085
   408.36         20.5457
   408.50         21.2640
   408.64         21.9028
   408.78         22.4010
   408.92         22.7030
   409.06         22.7782
   409.20         22.6357
   409.34         22.3203
   409.48         21.8961
   409.62         21.4256
   409.76         20.9593
   409.90         20.5391
   410.04         20.2003
   410.18         19.9671
   410.32         19.8471
   410.46         19.8298
   410.60         19.8892
   410.74         19.9886
   410.88         20.0900
   411.02         20.1655
   411.16         20.2021
   411.30         20.2008
   411.44         20.1747
   411.58         20.1447
   411.72         20.1311
   411.86         20.1424
   412.00         20.1689
   412.14         20.1910
   412.28         20.1912
   412.42         20.1637
   412.56         20.1149
   412.70         20.0577
   412.84         20.0030
   412.98         19.9519
   413.12         19.8960
   413.26         19.8272
   413.40         19.7480
   413.54         19.6723
   413.68         19.6135
   413.82         19.5780
   413.96         19.5649
   414.10         19.5684
   414.24         19.5820
   414.38         19.6061
   414.52         19.6541
   414.66         19.7495
   414.80         19.9197
   414.94         20.1862
   415.08         20.5523
   415.22         20.9966
   415.36         21.4822
   415.50         21.9678
   415.64         22.4152
   415.78         22.7957
   415.92         23.0876
   416.06         23.2702
   416.20         23.3230
   416.34         23.2345
   416.48         23.0114
   416.62         22.6786
   416.76         22.2746
   416.90         21.8470
   417.04         21.4484
   417.18         21.1303
   417.32         20.9325
   417.46         20.8759
   417.60         20.9616
   417.74         21.1719
   417.88         21.4784
   418.02         21.8546
   418.16         22.2738
   418.30         22.7003
   418.44         23.0871
   418.58         23.3860
   418.72         23.5604
   418.86         23.5925
   419.00         23.4831
   419.14         23.2494
   419.28         22.9222
   419.42         22.5464
   419.56         22.1789
   419.70         21.8794
   419.84         21.6978
   419.98         21.6620
   420.12         21.7737
   420.26         22.0154
   420.40         22.3609
   420.54         22.7835
   420.68         23.2586
   420.82         23.7560
   420.96         24.2347
   421.10         24.6466
   421.24         24.9392
   421.38         25.0627
   421.52         24.9845
   421.66         24.7035
   421.80         24.2542
   421.94         23.6943
   422.08         23.0863
   422.22         22.4874
   422.36         21.9459
   422.50         21.5004
   422.64         21.1807
   422.78         21.0165
   422.92         21.0458
   423.06         21.3118
   423.20         21.8438
   423.34         22.6329
   423.48         23.6229
   423.62         24.7221
   423.76         25.8252
   423.90         26.8339
   424.04         27.6750
   424.18         28.3045
   424.32         28.7014
   424.46         28.8636
   424.60         28.8019
   424.74         28.5419
   424.88         28.1339
   425.02         27.6568
   425.16         27.2115
   425.30         26.9053
   425.44         26.8295
   425.58         27.0321
   425.72         27.4994
   425.86         28.1529
   426.00         28.8688
   426.14         29.5168
   426.28         29.9944
   426.42         30.2468
   426.56         30.2691
   426.70         30.0936
   426.84         29.7713
   426.98         29.3620
   427.12         28.9295
   427.26         28.5328
   427.40         28.2146
   427.54         27.9964
   427.68         27.8747
   427.82         27.8172
   427.96         27.7691
   428.10         27.6715
   428.24         27.4791
   428.38         27.1754
   428.52         26.7753
   428.66         26.3144
   428.80         25.8403
   428.94         25.4057
   429.08         25.0551
   429.22         24.8102
   429.36         24.6633
   429.50         24.5879
   429.64         24.5616
   429.78         24.5842
   429.92         24.6752
   430.06         24.8615
   430.20         25.1767
   430.34         25.6700
   430.48         26.4033
   430.62         27.4290
   430.76         28.7627
   430.90         30.3687
   431.04         32.1640
   431.18         34.0259
   431.32         35.8100
   431.46         37.3915
   431.60         38.6963
   431.74         39.6992
   431.88         40.4108
   432.02         40.8731
   432.16         41.1624
   432.30         41.3723
   432.44         41.5754
   432.58         41.7952
   432.72         42.0100
   432.86         42.1828
   433.00         42.2881
   433.14         42.3102
   433.28         42.2343
   433.42         42.0574
   433.56         41.8059
   433.70         41.5327
   433.84         41.2944
   433.98         41.1435
   434.12         41.1372
   434.26         41.3352
   434.40         41.7781
   434.54         42.4638
   434.68         43.3449
   434.82         44.3390
   434.96         45.3546
   435.10         46.3187
   435.24         47.1978
   435.38         47.9955
   435.52         48.7297
   435.66         49.4139
   435.80         50.0451
   435.94         50.6027
   436.08         51.0470
   436.22         51.3238
   436.36         51.3838
   436.50         51.2090
   436.64         50.8275
   436.78         50.2941
   436.92         49.6536
   437.06         48.9130
   437.20         48.0531
   437.34         47.0702
   437.48         45.9978
   437.62         44.8914
   437.76         43.7987
   437.90         42.7503
   438.04         41.7706
   438.18         40.8904
   438.32         40.1581
   438.46         39.6352
   438.60         39.3707
   438.74         39.3809
   438.88         39.6636
   439.02         40.2046
   439.16         40.9475
   439.30         41.7720
   439.44         42.5211
   439.58         43.0591
   439.72         43.3209
   439.86         43.3273
   440.00         43.1551
   440.14         42.8847
   440.28         42.5766
   440.42         42.2816
   440.56         42.0554
   440.70         41.9500
   440.84         41.9944
   440.98         42.1893
   441.12         42.5106
   441.26         42.9124
   441.40         43.3368
   441.54         43.7312
   441.68         44.0497
   441.82         44.2584
   441.96         44.3511
   442.10         44.3494
   442.24         44.2851
   442.38         44.1907
   442.52         44.1046
   442.66         44.0582
   442.80         44.0667
   442.94         44.1318
   443.08         44.2467
   443.22         44.4104
   443.36         44.6309
   443.50         44.9232
   443.64         45.3061
   443.78         45.7874
   443.92         46.3515
   444.06         46.9553
   444.20         47.5339
   444.34         48.0128
   444.48         48.3209
   444.62         48.3922
   444.76         48.1737
   444.90         47.6504
   445.04         46.8689
   445.18         45.9203
   445.32         44.8933
   445.46         43.8552
   445.60         42.8664
   445.74         42.0020
   445.88         41.3567
   446.02         41.0240
   446.16         41.0741
   446.30         41.5425
   446.44         42.4281
   446.58         43.6920
   446.72         45.2515
   446.86         46.9878
   447.00         48.7824
   447.14         50.5464
   447.28         52.2290
   447.42         53.8067
   447.56         55.2588
   447.70         56.5502
   447.84         57.6357
   447.98         58.4748
   448.12         59.0375
   448.26         59.3083
   448.40         59.2978
   448.54         59.0561
   448.68         58.6680
   448.82         58.2320
   448.96         57.8483
   449.10         57.6164
   449.24         57.6211
   449.38         57.9216
   449.52         58.5550
   449.66         59.5400
   449.80         60.8568
   449.94         62.4208
   450.08         64.0857
   450.22         65.6805
   450.36         67.0592
   450.50         68.1251
   450.64         68.8243
   450.78         69.1478
   450.92         69.1289
   451.06         68.8291
   451.20         68.3206
   451.34         67.6601
   451.48         66.8757
   451.62         65.9786
   451.76         64.9741
   451.90         63.8587
   452.04         62.6241
   452.18         61.2694
   452.32         59.8309
   452.46         58.3963
   452.60         57.0776
   452.74         55.9762
   452.88         55.1721
   453.02         54.7231
   453.16         54.6509
   453.30         54.9353
   453.44         55.5156
   453.58         56.2880
   453.72         57.1331
   453.86         57.9460
   454.00         58.6374
   454.14         59.1373
   454.28         59.4219
   454.42         59.5332
   454.56         59.5585
   454.70         59.5972
   454.84         59.7435
   454.98         60.0742
   455.12         60.6206
   455.26         61.3620
   455.40         62.2637
   455.54         63.3051
   455.68         64.4615
   455.82         65.6811
   455.96         66.9011
   456.10         68.0632
   456.24         69.1134
   456.38         70.0036
   456.52         70.6854
   456.66         71.1184
   456.80         71.3006
   456.94         71.2820
   457.08         71.1317
   457.22         70.8997
   457.36         70.6233
   457.50         70.3483
   457.64         70.1309
   457.78         70.0259
   457.92         70.0714
   458.06         70.2694
   458.20         70.5764
   458.34         70.9217
   458.48         71.2362
   458.62         71.4655
   458.76         71.5623
