# File HD1400
# Wavelength [nm]    Normalized Amplitude
   349.70         4.1602
   349.84         4.1555
   349.98         4.1690
   350.12         4.1912
   350.26         4.2125
   350.40         4.2266
   350.54         4.2310
   350.68         4.2266
   350.82         4.2175
   350.96         4.2091
   351.10         4.2057
   351.24         4.2091
   351.38         4.2175
   351.52         4.2266
   351.66         4.2310
   351.80         4.2266
   351.94         4.2125
   352.08         4.1912
   352.22         4.1690
   352.36         4.1555
   352.50         4.1602
   352.64         4.1898
   352.78         4.2484
   352.92         4.3372
   353.06         4.4541
   353.20         4.5927
   353.34         4.7411
   353.48         4.8837
   353.62         5.0033
   353.76         5.0849
   353.90         5.1185
   354.04         5.1005
   354.18         5.0350
   354.32         4.9322
   354.46         4.8054
   354.60         4.6687
   354.74         4.5354
   354.88         4.4160
   355.02         4.3162
   355.16         4.2357
   355.30         4.1694
   355.44         4.1105
   355.58         4.0516
   355.72         3.9854
   355.86         3.9065
   356.00         3.8128
   356.14         3.7051
   356.28         3.5868
   356.42         3.4619
   356.56         3.3345
   356.70         3.2083
   356.84         3.0871
   356.98         2.9730
   357.12         2.8662
   357.26         2.7660
   357.40         2.6717
   357.54         2.5831
   357.68         2.5019
   357.82         2.4330
   357.96         2.3837
   358.10         2.3609
   358.24         2.3707
   358.38         2.4190
   358.52         2.5092
   358.66         2.6416
   358.80         2.8123
   358.94         3.0114
   359.08         3.2236
   359.22         3.4313
   359.36         3.6181
   359.50         3.7705
   359.64         3.8790
   359.78         3.9386
   359.92         3.9497
   360.06         3.9188
   360.20         3.8577
   360.34         3.7805
   360.48         3.7008
   360.62         3.6284
   360.76         3.5715
   360.90         3.5374
   361.04         3.5325
   361.18         3.5601
   361.32         3.6213
   361.46         3.7116
   361.60         3.8214
   361.74         3.9382
   361.88         4.0502
   362.02         4.1476
   362.16         4.2230
   362.30         4.2733
   362.44         4.3005
   362.58         4.3117
   362.72         4.3162
   362.86         4.3219
   363.00         4.3337
   363.14         4.3535
   363.28         4.3822
   363.42         4.4203
   363.56         4.4658
   363.70         4.5150
   363.84         4.5640
   363.98         4.6091
   364.12         4.6464
   364.26         4.6748
   364.40         4.6969
   364.54         4.7214
   364.68         4.7604
   364.82         4.8256
   364.96         4.9258
   365.10         5.0656
   365.24         5.2424
   365.38         5.4456
   365.52         5.6590
   365.66         5.8629
   365.80         6.0389
   365.94         6.1744
   366.08         6.2638
   366.22         6.3086
   366.36         6.3156
   366.50         6.2939
   366.64         6.2512
   366.78         6.1931
   366.92         6.1242
   367.06         6.0507
   367.20         5.9785
   367.34         5.9103
   367.48         5.8443
   367.62         5.7794
   367.76         5.7168
   367.90         5.6599
   368.04         5.6138
   368.18         5.5831
   368.32         5.5706
   368.46         5.5813
   368.60         5.6219
   368.74         5.6955
   368.88         5.7977
   369.02         5.9171
   369.16         6.0371
   369.30         6.1381
   369.44         6.2035
   369.58         6.2223
   369.72         6.1899
   369.86         6.1091
   370.00         5.9902
   370.14         5.8493
   370.28         5.7053
   370.42         5.5736
   370.56         5.4621
   370.70         5.3698
   370.84         5.2905
   370.98         5.2173
   371.12         5.1468
   371.26         5.0758
   371.40         4.9999
   371.54         4.9135
   371.68         4.8126
   371.82         4.6961
   371.96         4.5669
   372.10         4.4303
   372.24         4.2916
   372.38         4.1550
   372.52         4.0240
   372.66         3.9007
   372.80         3.7853
   372.94         3.6774
   373.08         3.5762
   373.22         3.4819
   373.36         3.3974
   373.50         3.3267
   373.64         3.2737
   373.78         3.2418
   373.92         3.2331
   374.06         3.2480
   374.20         3.2855
   374.34         3.3437
   374.48         3.4197
   374.62         3.5088
   374.76         3.6057
   374.90         3.7063
   375.04         3.8079
   375.18         3.9089
   375.32         4.0065
   375.46         4.0970
   375.60         4.1765
   375.74         4.2438
   375.88         4.3017
   376.02         4.3569
   376.16         4.4183
   376.30         4.4953
   376.44         4.5976
   376.58         4.7325
   376.72         4.9027
   376.86         5.1046
   377.00         5.3291
   377.14         5.5637
   377.28         5.7938
   377.42         6.0032
   377.56         6.1765
   377.70         6.3003
   377.84         6.3663
   377.98         6.3725
   378.12         6.3228
   378.26         6.2255
   378.40         6.0898
   378.54         5.9249
   378.68         5.7417
   378.82         5.5529
   378.96         5.3732
   379.10         5.2188
   379.24         5.1034
   379.38         5.0341
   379.52         5.0099
   379.66         5.0250
   379.80         5.0718
   379.94         5.1396
   380.08         5.2154
   380.22         5.2857
   380.36         5.3385
   380.50         5.3645
   380.64         5.3571
   380.78         5.3111
   380.92         5.2238
   381.06         5.0970
   381.20         4.9373
   381.34         4.7552
   381.48         4.5638
   381.62         4.3761
   381.76         4.2035
   381.90         4.0532
   382.04         3.9273
   382.18         3.8263
   382.32         3.7518
   382.46         3.7031
   382.60         3.6756
   382.74         3.6626
   382.88         3.6589
   383.02         3.6636
   383.16         3.6804
   383.30         3.7145
   383.44         3.7700
   383.58         3.8477
   383.72         3.9446
   383.86         4.0556
   384.00         4.1746
   384.14         4.2956
   384.28         4.4104
   384.42         4.5088
   384.56         4.5807
   384.70         4.6193
   384.84         4.6238
   384.98         4.5984
   385.12         4.5501
   385.26         4.4879
   385.40         4.4227
   385.54         4.3667
   385.68         4.3309
   385.82         4.3209
   385.96         4.3351
   386.10         4.3675
   386.24         4.4107
   386.38         4.4575
   386.52         4.5018
   386.66         4.5387
   386.80         4.5646
   386.94         4.5778
   387.08         4.5789
   387.22         4.5701
   387.36         4.5543
   387.50         4.5352
   387.64         4.5177
   387.78         4.5079
   387.92         4.5116
   388.06         4.5343
   388.20         4.5790
   388.34         4.6449
   388.48         4.7287
   388.62         4.8269
   388.76         4.9364
   388.90         5.0541
   389.04         5.1761
   389.18         5.2982
   389.32         5.4167
   389.46         5.5282
   389.60         5.6307
   389.74         5.7248
   389.88         5.8134
   390.02         5.8997
   390.16         5.9871
   390.30         6.0777
   390.44         6.1699
   390.58         6.2579
   390.72         6.3323
   390.86         6.3819
   391.00         6.3967
   391.14         6.3700
   391.28         6.2986
   391.42         6.1827
   391.56         6.0240
   391.70         5.8242
   391.84         5.5852
   391.98         5.3107
   392.12         5.0078
   392.26         4.6859
   392.40         4.3563
   392.54         4.0307
   392.68         3.7223
   392.82         3.4459
   392.96         3.2155
   393.10         3.0431
   393.24         2.9381
   393.38         2.9067
   393.52         2.9520
   393.66         3.0732
   393.80         3.2660
   393.94         3.5231
   394.08         3.8323
   394.22         4.1765
   394.36         4.5356
   394.50         4.8889
   394.64         5.2168
   394.78         5.5015
   394.92         5.7272
   395.06         5.8814
   395.20         5.9545
   395.34         5.9399
   395.48         5.8347
   395.62         5.6416
   395.76         5.3721
   395.90         5.0469
   396.04         4.6947
   396.18         4.3491
   396.32         4.0452
   396.46         3.8154
   396.60         3.6864
   396.74         3.6755
   396.88         3.7891
   397.02         4.0241
   397.16         4.3695
   397.30         4.8083
   397.44         5.3189
   397.58         5.8773
   397.72         6.4578
   397.86         7.0354
   398.00         7.5892
   398.14         8.1038
   398.28         8.5678
   398.42         8.9742
   398.56         9.3210
   398.70         9.6127
   398.84         9.8592
   398.98         10.0725
   399.12         10.2632
   399.26         10.4389
   399.40         10.6034
   399.54         10.7595
   399.68         10.9118
   399.82         11.0651
   399.96         11.2226
   400.10         11.3862
   400.24         11.5570
   400.38         11.7356
   400.52         11.9224
   400.66         12.1164
   400.80         12.3139
   400.94         12.5097
   401.08         12.6991
   401.22         12.8775
   401.36         13.0412
   401.50         13.1863
   401.64         13.3076
   401.78         13.3963
   401.92         13.4399
   402.06         13.4270
   402.20         13.3538
   402.34         13.2276
   402.48         13.0657
   402.62         12.8928
   402.76         12.7343
   402.90         12.6100
   403.04         12.5292
   403.18         12.4888
   403.32         12.4742
   403.46         12.4683
   403.60         12.4593
   403.74         12.4446
   403.88         12.4301
   404.02         12.4247
   404.16         12.4334
   404.30         12.4539
   404.44         12.4793
   404.58         12.5052
   404.72         12.5354
   404.86         12.5782
   405.00         12.6369
   405.14         12.7033
   405.28         12.7604
   405.42         12.7909
   405.56         12.7832
   405.70         12.7365
   405.84         12.6588
   405.98         12.5653
   406.12         12.4796
   406.26         12.4258
   406.40         12.4166
   406.54         12.4497
   406.68         12.5137
   406.82         12.5995
   406.96         12.7050
   407.10         12.8326
   407.24         12.9861
   407.38         13.1698
   407.52         13.3884
   407.66         13.6468
   407.80         13.9491
   407.94         14.2968
   408.08         14.6850
   408.22         15.0971
   408.36         15.5043
   408.50         15.8699
   408.64         16.1580
   408.78         16.3397
   408.92         16.3943
   409.06         16.3130
   409.20         16.1065
   409.34         15.8068
   409.48         15.4581
   409.62         15.1042
   409.76         14.7797
   409.90         14.5096
   410.04         14.3105
   410.18         14.1921
   410.32         14.1539
   410.46         14.1828
   410.60         14.2568
   410.74         14.3510
   410.88         14.4418
   411.02         14.5114
   411.16         14.5527
   411.30         14.5698
   411.44         14.5735
   411.58         14.5754
   411.72         14.5844
   411.86         14.6028
   412.00         14.6243
   412.14         14.6362
   412.28         14.6240
   412.42         14.5771
   412.56         14.4941
   412.70         14.3825
   412.84         14.2514
   412.98         14.1040
   413.12         13.9382
   413.26         13.7544
   413.40         13.5625
   413.54         13.3790
   413.68         13.2199
   413.82         13.0962
   413.96         13.0109
   414.10         12.9602
   414.24         12.9382
   414.38         12.9417
   414.52         12.9745
   414.66         13.0485
   414.80         13.1777
   414.94         13.3712
   415.08         13.6286
   415.22         13.9375
   415.36         14.2740
   415.50         14.6068
   415.64         14.9056
   415.78         15.1491
   415.92         15.3249
   416.06         15.4238
   416.20         15.4361
   416.34         15.3572
   416.48         15.1937
   416.62         14.9646
   416.76         14.6989
   416.90         14.4301
   417.04         14.1903
   417.18         14.0099
   417.32         13.9116
   417.46         13.9048
   417.60         13.9854
   417.74         14.1392
   417.88         14.3459
   418.02         14.5839
   418.16         14.8333
   418.30         15.0761
   418.44         15.2920
   418.58         15.4592
   418.72         15.5585
   418.86         15.5792
   419.00         15.5207
   419.14         15.3918
   419.28         15.2093
   419.42         14.9984
   419.56         14.7897
   419.70         14.6154
   419.84         14.5037
   419.98         14.4729
   420.12         14.5279
   420.26         14.6621
   420.40         14.8619
   420.54         15.1121
   420.68         15.3974
   420.82         15.6998
   420.96         15.9943
   421.10         16.2466
   421.24         16.4166
   421.38         16.4638
   421.52         16.3585
   421.66         16.0931
   421.80         15.6875
   421.94         15.1842
   422.08         14.6366
   422.22         14.0990
   422.36         13.6196
   422.50         13.2404
   422.64         12.9961
   422.78         12.9139
   422.92         13.0123
   423.06         13.3029
   423.20         13.7855
   423.34         14.4382
   423.48         15.2137
   423.62         16.0444
   423.76         16.8536
   423.90         17.5695
   424.04         18.1408
   424.18         18.5419
   424.32         18.7694
   424.46         18.8363
   424.60         18.7630
   424.74         18.5721
   424.88         18.2908
   425.02         17.9578
   425.16         17.6256
   425.30         17.3527
   425.44         17.1905
   425.58         17.1698
   425.72         17.2927
   425.86         17.5281
   426.00         17.8172
   426.14         18.0908
   426.28         18.2881
   426.42         18.3716
   426.56         18.3341
   426.70         18.1953
   426.84         17.9902
   426.98         17.7608
   427.12         17.5492
   427.26         17.3891
   427.40         17.3024
   427.54         17.2997
   427.68         17.3766
   427.82         17.5101
   427.96         17.6624
   428.10         17.7917
   428.24         17.8633
   428.38         17.8567
   428.52         17.7695
   428.66         17.6147
   428.80         17.4160
   428.94         17.2023
   429.08         17.0003
   429.22         16.8263
   429.36         16.6811
   429.50         16.5514
   429.64         16.4185
   429.78         16.2702
   429.92         16.1090
   430.06         15.9532
   430.20         15.8346
   430.34         15.7973
   430.48         15.8965
   430.62         16.1876
   430.76         16.7061
   430.90         17.4531
   431.04         18.3920
   431.18         19.4518
   431.32         20.5385
   431.46         21.5592
   431.60         22.4460
   431.74         23.1627
   431.88         23.6993
   432.02         24.0676
   432.16         24.3019
   432.30         24.4564
   432.44         24.5898
   432.58         24.7441
   432.72         24.9356
   432.86         25.1618
   433.00         25.4103
   433.14         25.6648
   433.28         25.9051
   433.42         26.1117
   433.56         26.2749
   433.70         26.3964
   433.84         26.4837
   433.98         26.5495
   434.12         26.6155
   434.26         26.7088
   434.40         26.8507
   434.54         27.0470
   434.68         27.2903
   434.82         27.5627
   434.96         27.8408
   435.10         28.1036
   435.24         28.3420
   435.38         28.5648
   435.52         28.7903
   435.66         29.0337
   435.80         29.3005
   435.94         29.5827
   436.08         29.8575
   436.22         30.0879
   436.36         30.2321
   436.50         30.2589
   436.64         30.1621
   436.78         29.9559
   436.92         29.6561
   437.06         29.2655
   437.20         28.7767
   437.34         28.1899
   437.48         27.5256
   437.62         26.8241
   437.76         26.1317
   437.90         25.4892
   438.04         24.9303
   438.18         24.4826
   438.32         24.1728
   438.46         24.0283
   438.60         24.0690
   438.74         24.2963
   438.88         24.6929
   439.02         25.2259
   439.16         25.8405
   439.30         26.4545
   439.44         26.9735
   439.58         27.3189
   439.72         27.4556
   439.86         27.4038
   440.00         27.2224
   440.14         26.9770
   440.28         26.7189
   440.42         26.4858
   440.56         26.3166
   440.70         26.2530
   440.84         26.3267
   440.98         26.5486
   441.12         26.9049
   441.26         27.3597
   441.40         27.8627
   441.54         28.3604
   441.68         28.8045
   441.82         29.1586
   441.96         29.4095
   442.10         29.5690
   442.24         29.6580
   442.38         29.6947
   442.52         29.6965
   442.66         29.6815
   442.80         29.6658
   442.94         29.6636
   443.08         29.6897
   443.22         29.7637
   443.36         29.9045
   443.50         30.1236
   443.64         30.4251
   443.78         30.8049
   443.92         31.2505
   444.06         31.7374
   444.20         32.2284
   444.34         32.6776
   444.48         33.0380
   444.62         33.2679
   444.76         33.3327
   444.90         33.2120
   445.04         32.9141
   445.18         32.4792
   445.32         31.9614
   445.46         31.4125
   445.60         30.8806
   445.74         30.4167
   445.88         30.0771
   446.02         29.9102
   446.16         29.9437
   446.30         30.1837
   446.44         30.6198
   446.58         31.2278
   446.72         31.9659
   446.86         32.7759
   447.00         33.5949
   447.14         34.3743
   447.28         35.0875
   447.42         35.7244
   447.56         36.2818
   447.70         36.7551
   447.84         37.1368
   447.98         37.4194
   448.12         37.5960
   448.26         37.6599
   448.40         37.6114
   448.54         37.4705
   448.68         37.2748
   448.82         37.0687
   448.96         36.8952
   449.10         36.7970
   449.24         36.8116
   449.38         36.9634
   449.52         37.2629
   449.66         37.7119
   449.80         38.3022
   449.94         39.0018
   450.08         39.7505
   450.22         40.4730
   450.36         41.1001
   450.50         41.5833
   450.64         41.8966
   450.78         42.0364
   450.92         42.0199
   451.06         41.8806
   451.20         41.6571
   451.34         41.3763
   451.48         41.0451
   451.62         40.6566
   451.76         40.2016
   451.90         39.6720
   452.04         39.0627
   452.18         38.3770
   452.32         37.6342
   452.46         36.8750
   452.60         36.1539
   452.74         35.5269
   452.88         35.0426
   453.02         34.7399
   453.16         34.6430
   453.30         34.7561
   453.44         35.0629
   453.58         35.5241
   453.72         36.0837
   453.86         36.6811
   454.00         37.2588
   454.14         37.7678
   454.28         38.1792
   454.42         38.4957
   454.56         38.7474
   454.70         38.9748
   454.84         39.2164
   454.98         39.5027
   455.12         39.8487
   455.26         40.2479
   455.40         40.6825
   455.54         41.1392
   455.68         41.6086
   455.82         42.0727
   455.96         42.5058
   456.10         42.8872
   456.24         43.2054
   456.38         43.4544
   456.52         43.6299
   456.66         43.7272
   456.80         43.7464
   456.94         43.7010
   457.08         43.6148
   457.22         43.5038
   457.36         43.3711
   457.50         43.2200
   457.64         43.0647
   457.78         42.9276
   457.92         42.8307
   458.06         42.7847
   458.20         42.7845
   458.34         42.8107
   458.48         42.8400
   458.62         42.8589
   458.76         42.8626
