# File HD158659
# Wavelength [nm]    Normalized Amplitude
   349.70         56.8187
   349.84         56.9892
   349.98         57.1683
   350.12         57.3416
   350.26         57.4959
   350.40         57.6322
   350.54         57.7565
   350.68         57.8688
   350.82         57.9625
   350.96         58.0243
   351.10         58.0451
   351.24         58.0243
   351.38         57.9625
   351.52         57.8688
   351.66         57.7565
   351.80         57.6322
   351.94         57.4959
   352.08         57.3416
   352.22         57.1683
   352.36         56.9892
   352.50         56.8187
   352.64         56.6567
   352.78         56.4995
   352.92         56.3552
   353.06         56.2364
   353.20         56.1528
   353.34         56.1142
   353.48         56.1312
   353.62         56.2050
   353.76         56.3279
   353.90         56.4838
   354.04         56.6518
   354.18         56.8133
   354.32         56.9428
   354.46         57.0141
   354.60         57.0058
   354.74         56.9025
   354.88         56.7075
   355.02         56.4382
   355.16         56.1153
   355.30         55.7638
   355.44         55.4160
   355.58         55.1066
   355.72         54.8689
   355.86         54.7268
   356.00         54.6788
   356.14         54.6996
   356.28         54.7570
   356.42         54.8327
   356.56         54.9257
   356.70         55.0390
   356.84         55.1662
   356.98         55.2902
   357.12         55.4058
   357.26         55.5244
   357.40         55.6574
   357.54         55.8109
   357.68         55.9846
   357.82         56.1704
   357.96         56.3545
   358.10         56.5217
   358.24         56.6632
   358.38         56.7732
   358.52         56.8447
   358.66         56.8806
   358.80         56.8940
   358.94         56.8991
   359.08         56.9070
   359.22         56.9176
   359.36         56.9095
   359.50         56.8559
   359.64         56.7412
   359.78         56.5642
   359.92         56.3260
   360.06         56.0193
   360.20         55.6437
   360.34         55.2133
   360.48         54.7507
   360.62         54.2900
   360.76         53.8769
   360.90         53.5537
   361.04         53.3474
   361.18         53.2710
   361.32         53.3214
   361.46         53.4746
   361.60         53.6905
   361.74         53.9178
   361.88         54.0989
   362.02         54.1894
   362.16         54.1681
   362.30         54.0274
   362.44         53.7780
   362.58         53.4475
   362.72         53.0692
   362.86         52.6854
   363.00         52.3432
   363.14         52.0862
   363.28         51.9507
   363.42         51.9479
   363.56         52.0614
   363.70         52.2632
   363.84         52.5221
   363.98         52.8059
   364.12         53.0849
   364.26         53.3347
   364.40         53.5367
   364.54         53.6822
   364.68         53.7791
   364.82         53.8418
   364.96         53.8832
   365.10         53.9173
   365.24         53.9525
   365.38         53.9883
   365.52         54.0230
   365.66         54.0509
   365.80         54.0612
   365.94         54.0367
   366.08         53.9593
   366.22         53.8270
   366.36         53.6495
   366.50         53.4391
   366.64         53.2097
   366.78         52.9758
   366.92         52.7537
   367.06         52.5562
   367.20         52.3958
   367.34         52.2887
   367.48         52.2437
   367.62         52.2554
   367.76         52.3110
   367.90         52.3960
   368.04         52.4935
   368.18         52.5930
   368.32         52.6919
   368.46         52.7790
   368.60         52.8252
   368.74         52.8008
   368.88         52.6913
   369.02         52.4993
   369.16         52.2355
   369.30         51.9056
   369.44         51.5146
   369.58         51.0768
   369.72         50.6171
   369.86         50.1643
   370.00         49.7472
   370.14         49.3900
   370.28         49.1053
   370.42         48.8992
   370.56         48.7792
   370.70         48.7442
   370.84         48.7804
   370.98         48.8635
   371.12         48.9586
   371.26         49.0378
   371.40         49.0963
   371.54         49.1423
   371.68         49.1803
   371.82         49.2051
   371.96         49.2141
   372.10         49.2150
   372.24         49.2177
   372.38         49.2263
   372.52         49.2394
   372.66         49.2594
   372.80         49.2897
   372.94         49.3292
   373.08         49.3857
   373.22         49.4747
   373.36         49.5979
   373.50         49.7423
   373.64         49.8876
   373.78         50.0051
   373.92         50.0671
   374.06         50.0570
   374.20         49.9664
   374.34         49.7912
   374.48         49.5346
   374.62         49.2163
   374.76         48.8728
   374.90         48.5513
   375.04         48.2970
   375.18         48.1417
   375.32         48.1026
   375.46         48.1835
   375.60         48.3765
   375.74         48.6542
   375.88         48.9543
   376.02         49.1916
   376.16         49.2964
   376.30         49.2399
   376.44         49.0333
   376.58         48.7173
   376.72         48.3528
   376.86         48.0104
   377.00         47.7632
   377.14         47.6748
   377.28         47.7831
   377.42         48.0966
   377.56         48.5936
   377.70         49.2255
   377.84         49.9335
   377.98         50.6553
   378.12         51.3161
   378.26         51.8333
   378.40         52.1314
   378.54         52.1584
   378.68         51.9023
   378.82         51.3978
   378.96         50.7112
   379.10         49.9206
   379.24         49.1050
   379.38         48.3408
   379.52         47.6932
   379.66         47.2097
   379.80         46.9234
   379.94         46.8588
   380.08         47.0250
   380.22         47.4051
   380.36         47.9632
   380.50         48.6508
   380.64         49.3958
   380.78         50.1052
   380.92         50.6906
   381.06         51.0923
   381.20         51.2952
   381.34         51.3210
   381.48         51.2036
   381.62         50.9783
   381.76         50.6812
   381.90         50.3474
   382.04         50.0003
   382.18         49.6430
   382.32         49.2553
   382.46         48.8025
   382.60         48.2515
   382.74         47.5857
   382.88         46.8193
   383.02         45.9998
   383.16         45.1943
   383.30         44.4749
   383.44         43.9110
   383.58         43.5670
   383.72         43.4952
   383.86         43.7201
   384.00         44.2244
   384.14         44.9567
   384.28         45.8518
   384.42         46.8366
   384.56         47.8295
   384.70         48.7497
   384.84         49.5359
   384.98         50.1583
   385.12         50.6185
   385.26         50.9427
   385.40         51.1645
   385.54         51.3104
   385.68         51.3947
   385.82         51.4199
   385.96         51.3776
   386.10         51.2557
   386.24         51.0552
   386.38         50.7951
   386.52         50.5043
   386.66         50.2103
   386.80         49.9268
   386.94         49.6526
   387.08         49.3783
   387.22         49.0924
   387.36         48.7807
   387.50         48.4170
   387.64         47.9599
   387.78         47.3658
   387.92         46.6152
   388.06         45.7279
   388.20         44.7543
   388.34         43.7616
   388.48         42.8261
   388.62         42.0295
   388.76         41.4531
   388.90         41.1632
   389.04         41.1972
   389.18         41.5570
   389.32         42.2082
   389.46         43.0843
   389.60         44.1057
   389.74         45.1960
   389.88         46.2794
   390.02         47.2825
   390.16         48.1482
   390.30         48.8446
   390.44         49.3703
   390.58         49.7456
   390.72         49.9998
   390.86         50.1574
   391.00         50.2292
   391.14         50.2263
   391.28         50.1683
   391.42         50.0671
   391.56         49.9228
   391.70         49.7371
   391.84         49.5160
   391.98         49.2629
   392.12         48.9781
   392.26         48.6697
   392.40         48.3543
   392.54         48.0464
   392.68         47.7647
   392.82         47.5273
   392.96         47.3402
   393.10         47.2042
   393.24         47.1177
   393.38         47.0777
   393.52         47.0753
   393.66         47.0993
   393.80         47.1472
   393.94         47.2170
   394.08         47.2955
   394.22         47.3668
   394.36         47.4227
   394.50         47.4555
   394.64         47.4549
   394.78         47.4197
   394.92         47.3568
   395.06         47.2640
   395.20         47.1246
   395.34         46.9166
   395.48         46.6090
   395.62         46.1643
   395.76         45.5524
   395.90         44.7601
   396.04         43.7965
   396.18         42.6993
   396.32         41.5336
   396.46         40.3794
   396.60         39.3180
   396.74         38.4264
   396.88         37.7755
   397.02         37.4205
   397.16         37.3836
   397.30         37.6521
   397.44         38.1888
   397.58         38.9360
   397.72         39.8212
   397.86         40.7690
   398.00         41.7101
   398.14         42.5874
   398.28         43.3582
   398.42         44.0000
   398.56         44.5112
   398.70         44.9008
   398.84         45.1820
   398.98         45.3711
   399.12         45.4807
   399.26         45.5191
   399.40         45.4952
   399.54         45.4210
   399.68         45.3040
   399.82         45.1442
   399.96         44.9439
   400.10         44.7147
   400.24         44.4760
   400.38         44.2489
   400.52         44.0532
   400.66         43.9023
   400.80         43.7987
   400.94         43.7357
   401.08         43.7015
   401.22         43.6754
   401.36         43.6254
   401.50         43.5173
   401.64         43.3296
   401.78         43.0593
   401.92         42.7192
   402.06         42.3347
   402.20         41.9402
   402.34         41.5689
   402.48         41.2517
   402.62         41.0212
   402.76         40.9054
   402.90         40.9161
   403.04         41.0437
   403.18         41.2602
   403.32         41.5301
   403.46         41.8203
   403.60         42.0995
   403.74         42.3357
   403.88         42.5034
   404.02         42.5930
   404.16         42.6146
   404.30         42.5941
   404.44         42.5529
   404.58         42.4997
   404.72         42.4370
   404.86         42.3645
   405.00         42.2794
   405.14         42.1795
   405.28         42.0668
   405.42         41.9468
   405.56         41.8197
   405.70         41.6788
   405.84         41.5176
   405.98         41.3362
   406.12         41.1378
   406.26         40.9199
   406.40         40.6791
   406.54         40.4248
   406.68         40.1769
   406.82         39.9561
   406.96         39.7762
   407.10         39.6422
   407.24         39.5583
   407.38         39.5239
   407.52         39.5282
   407.66         39.5538
   407.80         39.5795
   407.94         39.5828
   408.08         39.5393
   408.22         39.4245
   408.36         39.2248
   408.50         38.9404
   408.64         38.5772
   408.78         38.1362
   408.92         37.6104
   409.06         37.0004
   409.20         36.3213
   409.34         35.5947
   409.48         34.8489
   409.62         34.1215
   409.76         33.4612
   409.90         32.9184
   410.04         32.5312
   410.18         32.3291
   410.32         32.3307
   410.46         32.5318
   410.60         32.9061
   410.74         33.4176
   410.88         34.0228
   411.02         34.6701
   411.16         35.3040
   411.30         35.8797
   411.44         36.3711
   411.58         36.7693
   411.72         37.0839
   411.86         37.3360
   412.00         37.5484
   412.14         37.7408
   412.28         37.9252
   412.42         38.1044
   412.56         38.2687
   412.70         38.4021
   412.84         38.4950
   412.98         38.5347
   413.12         38.5035
   413.26         38.3913
   413.40         38.2003
   413.54         37.9426
   413.68         37.6377
   413.82         37.3133
   413.96         37.0018
   414.10         36.7286
   414.24         36.5098
   414.38         36.3546
   414.52         36.2608
   414.66         36.2187
   414.80         36.2171
   414.94         36.2439
   415.08         36.2869
   415.22         36.3357
   415.36         36.3843
   415.50         36.4303
   415.64         36.4695
   415.78         36.4977
   415.92         36.5158
   416.06         36.5314
   416.20         36.5536
   416.34         36.5847
   416.48         36.6210
   416.62         36.6563
   416.76         36.6818
   416.90         36.6887
   417.04         36.6691
   417.18         36.6179
   417.32         36.5408
   417.46         36.4472
   417.60         36.3404
   417.74         36.2198
   417.88         36.0885
   418.02         35.9541
   418.16         35.8247
   418.30         35.7067
   418.44         35.6040
   418.58         35.5199
   418.72         35.4573
   418.86         35.4163
   419.00         35.3923
   419.14         35.3811
   419.28         35.3810
   419.42         35.3897
   419.56         35.4038
   419.70         35.4211
   419.84         35.4404
   419.98         35.4582
   420.12         35.4672
   420.26         35.4629
   420.40         35.4506
   420.54         35.4392
   420.68         35.4316
   420.82         35.4237
   420.96         35.4087
   421.10         35.3797
   421.24         35.3362
   421.38         35.2881
   421.52         35.2477
   421.66         35.2210
   421.80         35.2087
   421.94         35.2044
   422.08         35.1957
   422.22         35.1725
   422.36         35.1296
   422.50         35.0637
   422.64         34.9735
   422.78         34.8636
   422.92         34.7432
   423.06         34.6205
   423.20         34.5020
   423.34         34.3936
   423.48         34.3006
   423.62         34.2275
   423.76         34.1774
   423.90         34.1508
   424.04         34.1438
   424.18         34.1470
   424.32         34.1486
   424.46         34.1401
   424.60         34.1166
   424.74         34.0789
   424.88         34.0328
   425.02         33.9824
   425.16         33.9271
   425.30         33.8665
   425.44         33.8033
   425.58         33.7420
   425.72         33.6873
   425.86         33.6455
   426.00         33.6193
   426.14         33.6045
   426.28         33.5918
   426.42         33.5675
   426.56         33.5199
   426.70         33.4443
   426.84         33.3419
   426.98         33.2188
   427.12         33.0840
   427.26         32.9475
   427.40         32.8196
   427.54         32.7086
   427.68         32.6218
   427.82         32.5667
   427.96         32.5468
   428.10         32.5586
   428.24         32.5949
   428.38         32.6505
   428.52         32.7225
   428.66         32.8039
   428.80         32.8855
   428.94         32.9584
   429.08         33.0154
   429.22         33.0551
   429.36         33.0795
   429.50         33.0895
   429.64         33.0833
   429.78         33.0583
   429.92         33.0160
   430.06         32.9622
   430.20         32.9026
   430.34         32.8411
   430.48         32.7787
   430.62         32.7149
   430.76         32.6508
   430.90         32.5902
   431.04         32.5345
   431.18         32.4796
   431.32         32.4227
   431.46         32.3655
   431.60         32.3057
   431.74         32.2398
   431.88         32.1667
   432.02         32.0839
   432.16         31.9887
   432.30         31.8796
   432.44         31.7525
   432.58         31.5956
   432.72         31.3866
   432.86         31.0981
   433.00         30.7066
   433.14         30.2021
   433.28         29.5967
   433.42         28.9216
   433.56         28.2218
   433.70         27.5484
   433.84         26.9532
   433.98         26.4817
   434.12         26.1607
   434.26         26.0024
   434.40         26.0140
   434.54         26.1926
   434.68         26.5210
   434.82         26.9711
   434.96         27.5054
   435.10         28.0781
   435.24         28.6419
   435.38         29.1591
   435.52         29.6075
   435.66         29.9784
   435.80         30.2750
   435.94         30.5083
   436.08         30.6907
   436.22         30.8303
   436.36         30.9298
   436.50         30.9925
   436.64         31.0245
   436.78         31.0329
   436.92         31.0266
   437.06         31.0116
   437.20         30.9879
   437.34         30.9555
   437.48         30.9127
   437.62         30.8508
   437.76         30.7549
   437.90         30.6142
   438.04         30.4332
   438.18         30.2287
   438.32         30.0222
   438.46         29.8362
   438.60         29.6916
   438.74         29.6052
   438.88         29.5845
   439.02         29.6272
   439.16         29.7266
   439.30         29.8703
   439.44         30.0395
   439.58         30.2116
   439.72         30.3652
   439.86         30.4852
   440.00         30.5602
   440.14         30.5810
   440.28         30.5448
   440.42         30.4574
   440.56         30.3342
   440.70         30.1941
   440.84         30.0517
   440.98         29.9149
   441.12         29.7851
   441.26         29.6630
   441.40         29.5483
   441.54         29.4365
   441.68         29.3233
   441.82         29.2095
   441.96         29.0961
   442.10         28.9819
   442.24         28.8676
   442.38         28.7601
   442.52         28.6669
   442.66         28.5904
   442.80         28.5312
   442.94         28.4916
   443.08         28.4766
   443.22         28.4903
   443.36         28.5317
   443.50         28.5939
   443.64         28.6632
   443.78         28.7275
   443.92         28.7827
   444.06         28.8269
   444.20         28.8582
   444.34         28.8788
   444.48         28.8947
   444.62         28.9087
   444.76         28.9196
   444.90         28.9315
   445.04         28.9512
   445.18         28.9786
   445.32         29.0056
   445.46         29.0201
   445.60         29.0087
   445.74         28.9535
   445.88         28.8304
   446.02         28.6199
   446.16         28.3170
   446.30         27.9355
   446.44         27.5042
   446.58         27.0575
   446.72         26.6295
   446.86         26.2536
   447.00         25.9598
   447.14         25.7700
   447.28         25.6945
   447.42         25.7344
   447.56         25.8820
   447.70         26.1156
   447.84         26.4044
   447.98         26.7156
   448.12         27.0190
   448.26         27.2903
   448.40         27.5117
   448.54         27.6754
   448.68         27.7868
   448.82         27.8588
   448.96         27.9061
   449.10         27.9406
   449.24         27.9651
   449.38         27.9737
   449.52         27.9621
   449.66         27.9337
   449.80         27.8951
   449.94         27.8502
   450.08         27.7979
   450.22         27.7344
   450.36         27.6602
   450.50         27.5795
   450.64         27.4969
   450.78         27.4176
   450.92         27.3469
   451.06         27.2903
   451.20         27.2497
   451.34         27.2214
   451.48         27.1998
   451.62         27.1821
   451.76         27.1662
   451.90         27.1483
   452.04         27.1265
   452.18         27.1012
   452.32         27.0711
   452.46         27.0309
   452.60         26.9766
   452.74         26.9082
   452.88         26.8296
   453.02         26.7494
   453.16         26.6801
   453.30         26.6328
   453.44         26.6134
   453.58         26.6217
   453.72         26.6497
   453.86         26.6829
   454.00         26.7096
   454.14         26.7262
   454.28         26.7350
   454.42         26.7387
   454.56         26.7373
   454.70         26.7309
   454.84         26.7254
   454.98         26.7273
   455.12         26.7377
   455.26         26.7555
   455.40         26.7778
   455.54         26.7965
   455.68         26.8020
   455.82         26.7853
   455.96         26.7356
   456.10         26.6466
   456.24         26.5189
   456.38         26.3588
   456.52         26.1797
   456.66         26.0014
   456.80         25.8424
   456.94         25.7175
