# File HD15866
# Wavelength [nm]    Normalized Amplitude
   349.70         12.9311
   349.84         12.9487
   349.98         12.9846
   350.12         13.0297
   350.26         13.0777
   350.40         13.1256
   350.54         13.1726
   350.68         13.2168
   350.82         13.2542
   350.96         13.2796
   351.10         13.2885
   351.24         13.2796
   351.38         13.2542
   351.52         13.2168
   351.66         13.1726
   351.80         13.1256
   351.94         13.0777
   352.08         13.0297
   352.22         12.9846
   352.36         12.9487
   352.50         12.9311
   352.64         12.9413
   352.78         12.9878
   352.92         13.0777
   353.06         13.2127
   353.20         13.3868
   353.34         13.5882
   353.48         13.8034
   353.62         14.0184
   353.76         14.2196
   353.90         14.3944
   354.04         14.5323
   354.18         14.6255
   354.32         14.6690
   354.46         14.6613
   354.60         14.6053
   354.74         14.5072
   354.88         14.3765
   355.02         14.2248
   355.16         14.0618
   355.30         13.8921
   355.44         13.7154
   355.58         13.5287
   355.72         13.3279
   355.86         13.1100
   356.00         12.8764
   356.14         12.6336
   356.28         12.3908
   356.42         12.1583
   356.56         11.9438
   356.70         11.7512
   356.84         11.5799
   356.98         11.4244
   357.12         11.2745
   357.26         11.1176
   357.40         10.9429
   357.54         10.7441
   357.68         10.5215
   357.82         10.2854
   357.96         10.0596
   358.10         9.8766
   358.24         9.7709
   358.38         9.7737
   358.52         9.9068
   358.66         10.1777
   358.80         10.5771
   358.94         11.0789
   359.08         11.6423
   359.22         12.2172
   359.36         12.7526
   359.50         13.2050
   359.64         13.5430
   359.78         13.7485
   359.92         13.8186
   360.06         13.7668
   360.20         13.6204
   360.34         13.4179
   360.48         13.2000
   360.62         12.9967
   360.76         12.8235
   360.90         12.6876
   361.04         12.5923
   361.18         12.5386
   361.32         12.5288
   361.46         12.5671
   361.60         12.6577
   361.74         12.7993
   361.88         12.9828
   362.02         13.1928
   362.16         13.4112
   362.30         13.6202
   362.44         13.8065
   362.58         13.9655
   362.72         14.0993
   362.86         14.2126
   363.00         14.3096
   363.14         14.3922
   363.28         14.4617
   363.42         14.5227
   363.56         14.5811
   363.70         14.6416
   363.84         14.7083
   363.98         14.7843
   364.12         14.8700
   364.26         14.9610
   364.40         15.0509
   364.54         15.1375
   364.68         15.2280
   364.82         15.3379
   364.96         15.4843
   365.10         15.6772
   365.24         15.9142
   365.38         16.1816
   365.52         16.4579
   365.66         16.7187
   365.80         16.9396
   365.94         17.1014
   366.08         17.1937
   366.22         17.2182
   366.36         17.1875
   366.50         17.1196
   366.64         17.0289
   366.78         16.9234
   366.92         16.8081
   367.06         16.6897
   367.20         16.5771
   367.34         16.4763
   367.48         16.3864
   367.62         16.3005
   367.76         16.2129
   367.90         16.1262
   368.04         16.0504
   368.18         15.9980
   368.32         15.9788
   368.46         15.9996
   368.60         16.0672
   368.74         16.1882
   368.88         16.3638
   369.02         16.5853
   369.16         16.8323
   369.30         17.0771
   369.44         17.2923
   369.58         17.4550
   369.72         17.5488
   369.86         17.5643
   370.00         17.5023
   370.14         17.3783
   370.28         17.2223
   370.42         17.0708
   370.56         16.9548
   370.70         16.8900
   370.84         16.8739
   370.98         16.8918
   371.12         16.9257
   371.26         16.9613
   371.40         16.9864
   371.54         16.9862
   371.68         16.9457
   371.82         16.8550
   371.96         16.7127
   372.10         16.5226
   372.24         16.2906
   372.38         16.0257
   372.52         15.7428
   372.66         15.4641
   372.80         15.2146
   372.94         15.0120
   373.08         14.8608
   373.22         14.7533
   373.36         14.6739
   373.50         14.6063
   373.64         14.5387
   373.78         14.4666
   373.92         14.3933
   374.06         14.3289
   374.20         14.2866
   374.34         14.2800
   374.48         14.3182
   374.62         14.4007
   374.76         14.5201
   374.90         14.6712
   375.04         14.8532
   375.18         15.0670
   375.32         15.3083
   375.46         15.5611
   375.60         15.7985
   375.74         15.9922
   375.88         16.1226
   376.02         16.1867
   376.16         16.1985
   376.30         16.1854
   376.44         16.1828
   376.58         16.2276
   376.72         16.3473
   376.86         16.5526
   377.00         16.8370
   377.14         17.1820
   377.28         17.5605
   377.42         17.9425
   377.56         18.2960
   377.70         18.5903
   377.84         18.8008
   377.98         18.9099
   378.12         18.9066
   378.26         18.7877
   378.40         18.5595
   378.54         18.2379
   378.68         17.8476
   378.82         17.4202
   378.96         16.9936
   379.10         16.6089
   379.24         16.3027
   379.38         16.1006
   379.52         16.0151
   379.66         16.0480
   379.80         16.1910
   379.94         16.4220
   380.08         16.7064
   380.22         17.0045
   380.36         17.2768
   380.50         17.4875
   380.64         17.6050
   380.78         17.6051
   380.92         17.4770
   381.06         17.2240
   381.20         16.8607
   381.34         16.4090
   381.48         15.8948
   381.62         15.3462
   381.76         14.7868
   381.90         14.2338
   382.04         13.7000
   382.18         13.1970
   382.32         12.7358
   382.46         12.3216
   382.60         11.9534
   382.74         11.6320
   382.88         11.3662
   383.02         11.1718
   383.16         11.0650
   383.30         11.0561
   383.44         11.1468
   383.58         11.3300
   383.72         11.5890
   383.86         11.9008
   384.00         12.2414
   384.14         12.5888
   384.28         12.9225
   384.42         13.2206
   384.56         13.4606
   384.70         13.6252
   384.84         13.7094
   384.98         13.7214
   385.12         13.6773
   385.26         13.5992
   385.40         13.5114
   385.54         13.4330
   385.68         13.3722
   385.82         13.3285
   385.96         13.3005
   386.10         13.2912
   386.24         13.3065
   386.38         13.3491
   386.52         13.4145
   386.66         13.4921
   386.80         13.5688
   386.94         13.6335
   387.08         13.6808
   387.22         13.7121
   387.36         13.7343
   387.50         13.7583
   387.64         13.7935
   387.78         13.8483
   387.92         13.9319
   388.06         14.0534
   388.20         14.2208
   388.34         14.4428
   388.48         14.7293
   388.62         15.0872
   388.76         15.5140
   388.90         15.9933
   389.04         16.4954
   389.18         16.9871
   389.32         17.4426
   389.46         17.8465
   389.60         18.1935
   389.74         18.4852
   389.88         18.7279
   390.02         18.9325
   390.16         19.1150
   390.30         19.2922
   390.44         19.4761
   390.58         19.6672
   390.72         19.8531
   390.86         20.0135
   391.00         20.1274
   391.14         20.1745
   391.28         20.1353
   391.42         19.9881
   391.56         19.7092
   391.70         19.2770
   391.84         18.6783
   391.98         17.9118
   392.12         16.9910
   392.26         15.9448
   392.40         14.8184
   392.54         13.6708
   392.68         12.5687
   392.82         11.5794
   392.96         10.7641
   393.10         10.1719
   393.24         9.8388
   393.38         9.7867
   393.52         10.0220
   393.66         10.5320
   393.80         11.2808
   393.94         12.2118
   394.08         13.2554
   394.22         14.3379
   394.36         15.3912
   394.50         16.3607
   394.64         17.2071
   394.78         17.9021
   394.92         18.4248
   395.06         18.7579
   395.20         18.8850
   395.34         18.7907
   395.48         18.4643
   395.62         17.9074
   395.76         17.1430
   395.90         16.2194
   396.04         15.2060
   396.18         14.1863
   396.32         13.2493
   396.46         12.4805
   396.60         11.9557
   396.74         11.7325
   396.88         11.8426
   397.02         12.2876
   397.16         13.0395
   397.30         14.0426
   397.44         15.2225
   397.58         16.4974
   397.72         17.7879
   397.86         19.0241
   398.00         20.1501
   398.14         21.1296
   398.28         21.9484
   398.42         22.6100
   398.56         23.1300
   398.70         23.5327
   398.84         23.8471
   398.98         24.1002
   399.12         24.3122
   399.26         24.4924
   399.40         24.6430
   399.54         24.7671
   399.68         24.8707
   399.82         24.9633
   399.96         25.0557
   400.10         25.1571
   400.24         25.2732
   400.38         25.4059
   400.52         25.5548
   400.66         25.7170
   400.80         25.8886
   400.94         26.0647
   401.08         26.2402
   401.22         26.4126
   401.36         26.5798
   401.50         26.7348
   401.64         26.8641
   401.78         26.9494
   401.92         26.9746
   402.06         26.9340
   402.20         26.8331
   402.34         26.6843
   402.48         26.5065
   402.62         26.3213
   402.76         26.1506
   402.90         26.0125
   403.04         25.9170
   403.18         25.8626
   403.32         25.8382
   403.46         25.8316
   403.60         25.8349
   403.74         25.8448
   403.88         25.8582
   404.02         25.8683
   404.16         25.8627
   404.30         25.8281
   404.44         25.7549
   404.58         25.6435
   404.72         25.5061
   404.86         25.3609
   405.00         25.2221
   405.14         25.0942
   405.28         24.9744
   405.42         24.8604
   405.56         24.7517
   405.70         24.6507
   405.84         24.5633
   405.98         24.4999
   406.12         24.4723
   406.26         24.4846
   406.40         24.5288
   406.54         24.5889
   406.68         24.6496
   406.82         24.7042
   406.96         24.7547
   407.10         24.8065
   407.24         24.8666
   407.38         24.9427
   407.52         25.0419
   407.66         25.1681
   407.80         25.3232
   407.94         25.5071
   408.08         25.7141
   408.22         25.9293
   408.36         26.1294
   408.50         26.2852
   408.64         26.3672
   408.78         26.3474
   408.92         26.2030
   409.06         25.9270
   409.20         25.5357
   409.34         25.0668
   409.48         24.5700
   409.62         24.0951
   409.76         23.6865
   409.90         23.3841
   410.04         23.2220
   410.18         23.2226
   410.32         23.3912
   410.46         23.7118
   410.60         24.1508
   410.74         24.6631
   410.88         25.2001
   411.02         25.7151
   411.16         26.1675
   411.30         26.5273
   411.44         26.7771
   411.58         26.9176
   411.72         26.9654
   411.86         26.9427
   412.00         26.8692
   412.14         26.7612
   412.28         26.6350
   412.42         26.5096
   412.56         26.4063
   412.70         26.3452
   412.84         26.3362
   412.98         26.3730
   413.12         26.4377
   413.26         26.5113
   413.40         26.5816
   413.54         26.6417
   413.68         26.6853
   413.82         26.7052
   413.96         26.6945
   414.10         26.6466
   414.24         26.5582
   414.38         26.4304
   414.52         26.2708
   414.66         26.0959
   414.80         25.9293
   414.94         25.7953
   415.08         25.7123
   415.22         25.6882
   415.36         25.7201
   415.50         25.7959
   415.64         25.9004
   415.78         26.0197
   415.92         26.1408
   416.06         26.2477
   416.20         26.3209
   416.34         26.3422
   416.48         26.2991
   416.62         26.1883
   416.76         26.0181
   416.90         25.8071
   417.04         25.5822
   417.18         25.3726
   417.32         25.2022
   417.46         25.0852
   417.60         25.0268
   417.74         25.0255
   417.88         25.0754
   418.02         25.1674
   418.16         25.2897
   418.30         25.4252
   418.44         25.5517
   418.58         25.6462
   418.72         25.6922
   418.86         25.6815
   419.00         25.6153
   419.14         25.5032
   419.28         25.3617
   419.42         25.2129
   419.56         25.0811
   419.70         24.9894
   419.84         24.9566
   419.98         24.9953
   420.12         25.1095
   420.26         25.2950
   420.40         25.5388
   420.54         25.8216
   420.68         26.1212
   420.82         26.4159
   420.96         26.6852
   421.10         26.9091
   421.24         27.0671
   421.38         27.1396
   421.52         27.1167
   421.66         27.0064
   421.80         26.8326
   421.94         26.6268
   422.08         26.4189
   422.22         26.2313
   422.36         26.0777
   422.50         25.9640
   422.64         25.8910
   422.78         25.8567
   422.92         25.8596
   423.06         25.9005
   423.20         25.9797
   423.34         26.0920
   423.48         26.2227
   423.62         26.3494
   423.76         26.4484
   423.90         26.5058
   424.04         26.5247
   424.18         26.5222
   424.32         26.5162
   424.46         26.5144
   424.60         26.5107
   424.74         26.4906
   424.88         26.4426
   425.02         26.3667
   425.16         26.2761
   425.30         26.1901
   425.44         26.1259
   425.58         26.0907
   425.72         26.0791
   425.86         26.0747
   426.00         26.0566
   426.14         26.0076
   426.28         25.9205
   426.42         25.8011
   426.56         25.6634
   426.70         25.5226
   426.84         25.3907
   426.98         25.2780
   427.12         25.1934
   427.26         25.1415
   427.40         25.1244
   427.54         25.1414
   427.68         25.1846
   427.82         25.2360
   427.96         25.2716
   428.10         25.2689
   428.24         25.2124
   428.38         25.0938
   428.52         24.9114
   428.66         24.6666
   428.80         24.3624
   428.94         24.0037
   429.08         23.5968
   429.22         23.1479
   429.36         22.6634
   429.50         22.1508
   429.64         21.6197
   429.78         21.0829
   429.92         20.5613
   430.06         20.0865
   430.20         19.7011
   430.34         19.4546
   430.48         19.3968
   430.62         19.5659
   430.76         19.9741
   430.90         20.6018
   431.04         21.3982
   431.18         22.2888
   431.32         23.1925
   431.46         24.0421
   431.60         24.7930
   431.74         25.4183
   431.88         25.9040
   432.02         26.2487
   432.16         26.4656
   432.30         26.5794
   432.44         26.6169
   432.58         26.5972
   432.72         26.5282
   432.86         26.4113
   433.00         26.2477
   433.14         26.0405
   433.28         25.7957
   433.42         25.5252
   433.56         25.2480
   433.70         24.9892
   433.84         24.7763
   433.98         24.6387
   434.12         24.6047
   434.26         24.6912
   434.40         24.8981
   434.54         25.2101
   434.68         25.6012
   434.82         26.0391
   434.96         26.4891
   435.10         26.9217
   435.24         27.3199
   435.38         27.6802
   435.52         28.0086
   435.66         28.3131
   435.80         28.5965
   435.94         28.8523
   436.08         29.0648
   436.22         29.2143
   436.36         29.2854
   436.50         29.2742
   436.64         29.1908
   436.78         29.0539
   436.92         28.8776
   437.06         28.6642
   437.20         28.4111
   437.34         28.1213
   437.48         27.8058
   437.62         27.4802
   437.76         27.1596
   437.90         26.8574
   438.04         26.5866
   438.18         26.3600
   438.32         26.1924
   438.46         26.0994
   438.60         26.0917
   438.74         26.1696
   438.88         26.3253
   439.02         26.5442
   439.16         26.8028
   439.30         27.0692
   439.44         27.3113
   439.58         27.5050
   439.72         27.6440
   439.86         27.7436
   440.00         27.8289
   440.14         27.9187
   440.28         28.0199
   440.42         28.1337
   440.56         28.2625
   440.70         28.4095
   440.84         28.5756
   440.98         28.7578
   441.12         28.9485
   441.26         29.1348
   441.40         29.3038
   441.54         29.4484
   441.68         29.5664
   441.82         29.6573
   441.96         29.7219
   442.10         29.7612
   442.24         29.7747
   442.38         29.7642
   442.52         29.7354
   442.66         29.6954
   442.80         29.6501
   442.94         29.6047
   443.08         29.5674
   443.22         29.5496
   443.36         29.5609
   443.50         29.6068
   443.64         29.6878
   443.78         29.8018
   443.92         29.9428
   444.06         30.0979
   444.20         30.2449
   444.34         30.3561
   444.48         30.4062
   444.62         30.3771
   444.76         30.2618
   444.90         30.0667
   445.04         29.8123
   445.18         29.5263
   445.32         29.2353
   445.46         28.9601
   445.60         28.7186
   445.74         28.5304
   445.88         28.4159
   446.02         28.3914
   446.16         28.4659
   446.30         28.6395
   446.44         28.9020
   446.58         29.2309
   446.72         29.5905
   446.86         29.9409
   447.00         30.2523
   447.14         30.5105
   447.28         30.7148
   447.42         30.8709
   447.56         30.9831
   447.70         31.0532
   447.84         31.0821
   447.98         31.0721
   448.12         31.0271
   448.26         30.9542
   448.40         30.8663
   448.54         30.7804
   448.68         30.7111
   448.82         30.6665
   448.96         30.6492
   449.10         30.6602
   449.24         30.7012
   449.38         30.7757
   449.52         30.8916
   449.66         31.0572
   449.80         31.2730
   449.94         31.5258
   450.08         31.7904
   450.22         32.0384
   450.36         32.2472
   450.50         32.4026
   450.64         32.4980
   450.78         32.5327
   450.92         32.5107
   451.06         32.4411
   451.20         32.3326
   451.34         32.1899
   451.48         32.0129
   451.62         31.8018
   451.76         31.5581
   451.90         31.2837
   452.04         30.9805
   452.18         30.6522
   452.32         30.3109
   452.46         29.9773
   452.60         29.6749
   452.74         29.4244
   452.88         29.2425
   453.02         29.1409
   453.16         29.1238
   453.30         29.1860
   453.44         29.3118
   453.58         29.4754
   453.72         29.6458
   453.86         29.7941
   454.00         29.8991
   454.14         29.9503
   454.28         29.9501
   454.42         29.9127
   454.56         29.8597
   454.70         29.8164
   454.84         29.8084
   454.98         29.8553
   455.12         29.9619
   455.26         30.1183
   455.40         30.3071
   455.54         30.5122
   455.68         30.7176
   455.82         30.9053
   455.96         31.0613
   456.10         31.1795
   456.24         31.2624
   456.38         31.3202
   456.52         31.3637
   456.66         31.3976
   456.80         31.4195
   456.94         31.4251
