# File HD16808
# Wavelength [nm]    Normalized Amplitude
   349.70         531.3315
   349.84         530.7342
   349.98         530.7789
   350.12         531.3727
   350.26         532.4458
   350.40         533.9140
   350.54         535.6200
   350.68         537.3174
   350.82         538.7417
   350.96         539.6818
   351.10         540.0092
   351.24         539.6818
   351.38         538.7417
   351.52         537.3174
   351.66         535.6200
   351.80         533.9140
   351.94         532.4458
   352.08         531.3727
   352.22         530.7789
   352.36         530.7342
   352.50         531.3315
   352.64         532.6478
   352.78         534.6124
   352.92         536.9413
   353.06         539.2467
   353.20         541.1738
   353.34         542.4392
   353.48         542.8363
   353.62         542.2810
   353.76         540.7889
   353.90         538.4098
   354.04         535.2434
   354.18         531.4473
   354.32         527.2623
   354.46         523.0179
   354.60         519.0016
   354.74         515.4016
   354.88         512.3850
   355.02         510.0873
   355.16         508.5364
   355.30         507.6755
   355.44         507.4635
   355.58         507.8921
   355.72         508.9369
   355.86         510.5143
   356.00         512.4344
   356.14         514.4311
   356.28         516.2949
   356.42         517.9242
   356.56         519.2721
   356.70         520.3311
   356.84         521.1142
   356.98         521.6228
   357.12         521.8083
   357.26         521.5658
   357.40         520.8046
   357.54         519.4970
   357.68         517.6934
   357.82         515.5329
   357.96         513.2275
   358.10         510.9960
   358.24         508.9681
   358.38         507.1865
   358.52         505.6962
   358.66         504.5623
   358.80         503.8269
   358.94         503.4721
   359.08         503.3843
   359.22         503.4015
   359.36         503.4052
   359.50         503.3004
   359.64         502.9988
   359.78         502.4732
   359.92         501.7730
   360.06         500.9730
   360.20         500.1330
   360.34         499.3211
   360.48         498.6116
   360.62         498.0530
   360.76         497.6538
   360.90         497.3877
   361.04         497.2464
   361.18         497.2767
   361.32         497.5041
   361.46         497.9031
   361.60         498.4665
   361.74         499.2241
   361.88         500.1753
   362.02         501.1916
   362.16         501.9909
   362.30         502.2843
   362.44         501.9298
   362.58         500.9216
   362.72         499.3529
   362.86         497.4219
   363.00         495.3973
   363.14         493.5494
   363.28         492.0906
   363.42         491.1457
   363.56         490.7665
   363.70         490.9331
   363.84         491.5341
   363.98         492.3923
   364.12         493.3349
   364.26         494.2079
   364.40         494.8701
   364.54         495.2425
   364.68         495.3541
   364.82         495.3284
   364.96         495.3649
   365.10         495.6536
   365.24         496.2678
   365.38         497.1625
   365.52         498.2174
   365.66         499.2245
   365.80         499.9515
   365.94         500.2045
   366.08         499.8519
   366.22         498.8849
   366.36         497.3930
   366.50         495.5242
   366.64         493.4606
   366.78         491.3755
   366.92         489.4185
   367.06         487.7314
   367.20         486.3933
   367.34         485.3467
   367.48         484.4559
   367.62         483.6057
   367.76         482.6960
   367.90         481.6058
   368.04         480.2138
   368.18         478.4287
   368.32         476.2135
   368.46         473.6656
   368.60         470.9896
   368.74         468.4121
   368.88         466.1285
   369.02         464.2161
   369.16         462.6006
   369.30         461.1336
   369.44         459.7204
   369.58         458.3531
   369.72         457.0406
   369.86         455.7574
   370.00         454.4884
   370.14         453.3154
   370.28         452.3894
   370.42         451.8484
   370.56         451.8150
   370.70         452.3898
   370.84         453.5911
   370.98         455.3483
   371.12         457.5419
   371.26         459.9955
   371.40         462.4638
   371.54         464.6691
   371.68         466.3787
   371.82         467.4511
   371.96         467.8429
   372.10         467.5644
   372.24         466.6020
   372.38         464.9436
   372.52         462.6922
   372.66         460.0925
   372.80         457.4948
   372.94         455.2993
   373.08         453.8812
   373.22         453.4808
   373.36         454.1260
   373.50         455.6714
   373.64         457.8315
   373.78         460.1927
   373.92         462.2767
   374.06         463.6602
   374.20         464.0738
   374.34         463.4168
   374.48         461.7077
   374.62         459.0875
   374.76         455.8550
   374.90         452.4526
   375.04         449.4283
   375.18         447.3011
   375.32         446.3827
   375.46         446.7309
   375.60         448.1511
   375.74         450.1738
   375.88         452.1358
   376.02         453.4216
   376.16         453.6391
   376.30         452.6612
   376.44         450.6767
   376.58         448.1680
   376.72         445.7560
   376.86         443.9936
   377.00         443.2577
   377.14         443.7764
   377.28         445.6672
   377.42         448.9095
   377.56         453.3392
   377.70         458.6537
   377.84         464.4061
   377.98         470.0875
   378.12         475.2287
   378.26         479.4142
   378.40         482.2580
   378.54         483.4298
   378.68         482.7533
   378.82         480.2932
   378.96         476.3650
   379.10         471.4717
   379.24         466.1841
   379.38         461.0462
   379.52         456.5537
   379.66         453.1660
   379.80         451.2678
   379.94         451.0787
   380.08         452.6167
   380.22         455.7331
   380.36         460.1321
   380.50         465.3595
   380.64         470.8236
   380.78         475.8708
   380.92         479.9188
   381.06         482.6079
   381.20         483.8919
   381.34         484.0460
   381.48         483.5479
   381.62         482.8430
   381.76         482.1864
   381.90         481.6215
   382.04         481.0087
   382.18         480.0608
   382.32         478.3914
   382.46         475.6238
   382.60         471.5378
   382.74         466.1647
   382.88         459.7903
   383.02         452.8744
   383.16         445.9484
   383.30         439.6043
   383.44         434.4922
   383.58         431.1974
   383.72         430.0896
   383.86         431.2440
   384.00         434.4672
   384.14         439.3612
   384.28         445.3515
   384.42         451.7619
   384.56         457.9425
   384.70         463.3525
   384.84         467.6172
   384.98         470.6052
   385.12         472.4397
   385.26         473.3728
   385.40         473.6303
   385.54         473.3428
   385.68         472.5795
   385.82         471.4009
   385.96         469.8792
   386.10         468.0808
   386.24         466.0481
   386.38         463.8590
   386.52         461.6719
   386.66         459.6650
   386.80         457.9535
   386.94         456.5416
   387.08         455.3372
   387.22         454.2113
   387.36         452.9971
   387.50         451.4478
   387.64         449.2480
   387.78         446.0966
   387.92         441.8223
   388.06         436.4765
   388.20         430.3652
   388.34         423.9946
   388.48         417.9416
   388.62         412.7626
   388.76         408.9518
   388.90         406.8876
   389.04         406.8007
   389.18         408.7337
   389.32         412.5021
   389.46         417.7260
   389.60         423.8997
   389.74         430.4657
   389.88         436.8589
   390.02         442.5445
   390.16         447.0949
   390.30         450.2837
   390.44         452.1367
   390.58         452.8582
   390.72         452.6986
   390.86         451.8751
   391.00         450.5559
   391.14         448.8767
   391.28         446.9465
   391.42         444.8549
   391.56         442.6938
   391.70         440.5585
   391.84         438.5158
   391.98         436.5632
   392.12         434.6131
   392.26         432.5482
   392.40         430.3105
   392.54         427.9472
   392.68         425.5915
   392.82         423.4026
   392.96         421.5200
   393.10         420.0417
   393.24         419.0187
   393.38         418.4690
   393.52         418.3850
   393.66         418.7355
   393.80         419.4543
   393.94         420.4424
   394.08         421.5748
   394.22         422.6860
   394.36         423.5893
   394.50         424.1281
   394.64         424.2199
   394.78         423.8600
   394.92         423.1135
   395.06         422.0812
   395.20         420.7963
   395.34         419.1763
   395.48         417.0359
   395.62         414.0963
   395.76         410.0621
   395.90         404.7734
   396.04         398.3289
   396.18         391.0859
   396.32         383.5717
   396.46         376.4039
   396.60         370.2131
   396.74         365.5365
   396.88         362.7557
   397.02         362.0866
   397.16         363.5587
   397.30         367.0107
   397.44         372.0829
   397.58         378.2474
   397.72         384.8973
   397.86         391.4407
   398.00         397.3718
   398.14         402.2837
   398.28         405.9190
   398.42         408.2670
   398.56         409.5598
   398.70         410.1400
   398.84         410.3073
   398.98         410.2391
   399.12         410.0062
   399.26         409.6114
   399.40         409.0284
   399.54         408.2269
   399.68         407.1703
   399.82         405.8383
   399.96         404.2669
   400.10         402.5456
   400.24         400.7963
   400.38         399.1516
   400.52         397.7214
   400.66         396.5448
   400.80         395.5929
   400.94         394.8316
   401.08         394.2260
   401.22         393.6761
   401.36         393.0008
   401.50         392.0129
   401.64         390.6110
   401.78         388.8178
   401.92         386.7677
   402.06         384.6554
   402.20         382.6838
   402.34         381.0498
   402.48         379.9502
   402.62         379.5327
   402.76         379.8201
   402.90         380.6966
   403.04         381.9542
   403.18         383.3751
   403.32         384.7769
   403.46         386.0141
   403.60         386.9841
   403.74         387.6253
   403.88         387.9474
   404.02         388.0683
   404.16         388.1686
   404.30         388.3855
   404.44         388.7428
   404.58         389.1767
   404.72         389.5771
   404.86         389.8176
   405.00         389.7930
   405.14         389.4394
   405.28         388.7303
   405.42         387.6603
   405.56         386.2302
   405.70         384.4470
   405.84         382.3386
   405.98         379.9509
   406.12         377.3445
   406.26         374.6110
   406.40         371.8595
   406.54         369.1880
   406.68         366.6626
   406.82         364.3350
   406.96         362.2765
   407.10         360.5629
   407.24         359.2372
   407.38         358.2790
   407.52         357.5916
   407.66         357.0230
   407.80         356.4174
   407.94         355.6562
   408.08         354.6640
   408.22         353.4035
   408.36         351.8657
   408.50         350.0505
   408.64         347.9404
   408.78         345.4695
   408.92         342.5222
   409.06         338.9999
   409.20         334.9206
   409.34         330.4636
   409.48         325.9287
   409.62         321.6541
   409.76         317.9661
   409.90         315.1693
   410.04         313.5110
   410.18         313.1335
   410.32         314.0516
   410.46         316.1489
   410.60         319.1884
   410.74         322.8237
   410.88         326.6219
   411.02         330.1392
   411.16         333.0402
   411.30         335.1627
   411.44         336.5060
   411.58         337.2212
   411.72         337.5888
   411.86         337.9297
   412.00         338.4952
   412.14         339.4116
   412.28         340.6844
   412.42         342.2411
   412.56         343.9676
   412.70         345.7291
   412.84         347.3724
   412.98         348.7373
   413.12         349.7052
   413.26         350.2317
   413.40         350.3329
   413.54         350.0768
   413.68         349.5778
   413.82         348.9713
   413.96         348.3678
   414.10         347.8287
   414.24         347.3849
   414.38         347.0454
   414.52         346.8030
   414.66         346.6432
   414.80         346.5480
   414.94         346.4987
   415.08         346.4836
   415.22         346.4978
   415.36         346.5209
   415.50         346.5009
   415.64         346.3998
   415.78         346.2427
   415.92         346.0839
   416.06         345.9543
   416.20         345.8377
   416.34         345.6792
   416.48         345.4169
   416.62         345.0006
   416.76         344.4067
   416.90         343.6403
   417.04         342.7133
   417.18         341.6382
   417.32         340.4375
   417.46         339.1516
   417.60         337.8355
   417.74         336.5423
   417.88         335.3101
   418.02         334.1427
   418.16         333.0370
   418.30         332.0206
   418.44         331.1253
   418.58         330.3627
   418.72         329.7333
   418.86         329.2466
   419.00         328.9278
   419.14         328.8094
   419.28         328.9077
   419.42         329.2059
   419.56         329.6515
   419.70         330.1714
   419.84         330.6985
   419.98         331.1822
   420.12         331.5824
   420.26         331.8572
   420.40         331.9660
   420.54         331.8836
   420.68         331.6051
   420.82         331.1570
   420.96         330.5890
   421.10         329.9524
   421.24         329.2962
   421.38         328.6511
   421.52         328.0348
   421.66         327.4623
   421.80         326.9373
   421.94         326.4442
   422.08         325.9528
   422.22         325.4443
   422.36         324.9255
   422.50         324.4168
   422.64         323.9385
   422.78         323.5090
   422.92         323.1354
   423.06         322.8134
   423.20         322.5378
   423.34         322.3092
   423.48         322.1347
   423.62         322.0180
   423.76         321.9493
   423.90         321.8967
   424.04         321.8085
   424.18         321.6375
   424.32         321.3586
   424.46         320.9653
   424.60         320.4674
   424.74         319.8923
   424.88         319.2814
   425.02         318.6753
   425.16         318.0921
   425.30         317.5291
   425.44         316.9752
   425.58         316.4230
   425.72         315.8740
   425.86         315.3375
   426.00         314.8208
   426.14         314.3168
   426.28         313.8050
   426.42         313.2604
   426.56         312.6549
   426.70         311.9720
   426.84         311.2234
   426.98         310.4308
   427.12         309.6081
   427.26         308.7689
   427.40         307.9311
   427.54         307.1107
   427.68         306.3265
   427.82         305.6034
   427.96         304.9692
   428.10         304.4472
   428.24         304.0520
   428.38         303.7887
   428.52         303.6619
   428.66         303.6817
   428.80         303.8521
   428.94         304.1581
   429.08         304.5727
   429.22         305.0607
   429.36         305.5699
   429.50         306.0412
   429.64         306.4280
   429.78         306.7080
   429.92         306.8808
   430.06         306.9553
   430.20         306.9464
   430.34         306.8625
   430.48         306.6821
   430.62         306.3550
   430.76         305.8370
   430.90         305.1301
   431.04         304.2878
   431.18         303.3898
   431.32         302.5157
   431.46         301.7351
   431.60         301.1081
   431.74         300.6776
   431.88         300.4475
   432.02         300.3879
   432.16         300.4568
   432.30         300.5904
   432.44         300.6701
   432.58         300.4999
   432.72         299.8129
   432.86         298.3175
   433.00         295.7905
   433.14         292.1692
   433.28         287.5917
   433.42         282.3669
   433.56         276.8924
   433.70         271.5686
   433.84         266.7606
   433.98         262.7958
   434.12         259.9559
   434.26         258.4411
   434.40         258.3362
   434.54         259.6168
   434.68         262.1587
   434.82         265.7318
   434.96         270.0180
   435.10         274.6514
   435.24         279.2649
   435.38         283.5426
   435.52         287.2712
   435.66         290.3558
   435.80         292.7794
   435.94         294.5549
   436.08         295.7055
   436.22         296.2741
   436.36         296.3497
   436.50         296.0683
   436.64         295.5792
   436.78         295.0127
   436.92         294.4601
   437.06         293.9699
   437.20         293.5382
   437.34         293.0964
   437.48         292.5330
   437.62         291.7406
   437.76         290.6581
   437.90         289.2851
   438.04         287.6730
   438.18         285.9255
   438.32         284.1912
   438.46         282.6351
   438.60         281.4080
   438.74         280.6208
   438.88         280.3310
   439.02         280.5218
   439.16         281.1054
   439.30         281.9559
   439.44         282.9437
   439.58         283.9509
   439.72         284.8516
   439.86         285.5118
   440.00         285.8282
   440.14         285.7482
   440.28         285.2630
   440.42         284.3856
   440.56         283.1280
   440.70         281.5092
   440.84         279.5767
   440.98         277.4079
   441.12         275.1001
   441.26         272.7587
   441.40         270.4755
   441.54         268.3165
   441.68         266.3397
   441.82         264.6091
   441.96         263.1706
   442.10         262.0401
   442.24         261.2110
   442.38         260.6367
   442.52         260.2422
   442.66         259.9589
   442.80         259.7369
   442.94         259.5556
   443.08         259.4280
   443.22         259.4003
   443.36         259.5220
   443.50         259.8136
   443.64         260.2605
   443.78         260.8292
   443.92         261.4837
   444.06         262.1872
   444.20         262.9199
   444.34         263.6807
   444.48         264.4630
   444.62         265.2511
   444.76         266.0362
   444.90         266.8099
   445.04         267.5515
   445.18         268.2394
   445.32         268.8464
   445.46         269.3294
   445.60         269.6243
   445.74         269.6285
   445.88         269.2034
   446.02         268.2263
   446.16         266.6685
   446.30         264.6255
   446.44         262.2883
   446.58         259.8927
   446.72         257.6714
   446.86         255.8271
   447.00         254.5072
   447.14         253.7987
   447.28         253.7425
   447.42         254.3418
   447.56         255.5504
   447.70         257.2542
   447.84         259.2828
   447.98         261.4279
   448.12         263.4875
   448.26         265.2958
   448.40         266.7284
   448.54         267.7341
   448.68         268.3469
   448.82         268.6428
   448.96         268.6833
   449.10         268.5043
   449.24         268.1461
   449.38         267.6595
   449.52         267.0952
   449.66         266.5051
   449.80         265.9466
   449.94         265.4714
   450.08         265.1115
   450.22         264.8773
   450.36         264.7562
   450.50         264.7155
   450.64         264.7099
   450.78         264.7034
   450.92         264.6733
   451.06         264.5984
   451.20         264.4687
   451.34         264.2920
   451.48         264.0750
   451.62         263.8246
   451.76         263.5655
   451.90         263.3181
   452.04         263.0768
   452.18         262.8225
   452.32         262.5452
   452.46         262.2521
   452.60         261.9641
   452.74         261.7006
   452.88         261.4645
