# File HD16691
# Wavelength [nm]    Normalized Amplitude
   349.70         640.5402
   349.84         640.7869
   349.98         641.6014
   350.12         642.9473
   350.26         644.7227
   350.40         646.7945
   350.54         648.9862
   350.68         651.0429
   350.82         652.6905
   350.96         653.7340
   351.10         654.0883
   351.24         653.7340
   351.38         652.6905
   351.52         651.0429
   351.66         648.9862
   351.80         646.7945
   351.94         644.7227
   352.08         642.9473
   352.22         641.6014
   352.36         640.7869
   352.50         640.5402
   352.64         640.7980
   352.78         641.4009
   352.92         642.1172
   353.06         642.6961
   353.20         642.9329
   353.34         642.6955
   353.48         641.9561
   353.62         640.8020
   353.76         639.3930
   353.90         637.9029
   354.04         636.5168
   354.18         635.4088
   354.32         634.6917
   354.46         634.3926
   354.60         634.4499
   354.74         634.7663
   354.88         635.2581
   355.02         635.8043
   355.16         636.1997
   355.30         636.2047
   355.44         635.6276
   355.58         634.3966
   355.72         632.5799
   355.86         630.2972
   356.00         627.6528
   356.14         624.7833
   356.28         621.8860
   356.42         619.1526
   356.56         616.7124
   356.70         614.6488
   356.84         613.0060
   356.98         611.7869
   357.12         610.9617
   357.26         610.4502
   357.40         610.1282
   357.54         609.8327
   357.68         609.4054
   357.82         608.7949
   357.96         608.0880
   358.10         607.4408
   358.24         607.0065
   358.38         606.8893
   358.52         607.1269
   358.66         607.7482
   358.80         608.8016
   358.94         610.2557
   359.08         611.9285
   359.22         613.5479
   359.36         614.8555
   359.50         615.6535
   359.64         615.8112
   359.78         615.2660
   359.92         614.0120
   360.06         612.1078
   360.20         609.6826
   360.34         606.9241
   360.48         604.0438
   360.62         601.1886
   360.76         598.4111
   360.90         595.7460
   361.04         593.2466
   361.18         590.9696
   361.32         589.0077
   361.46         587.4948
   361.60         586.5264
   361.74         586.1244
   361.88         586.2675
   362.02         586.9097
   362.16         587.9595
   362.30         589.2569
   362.44         590.6301
   362.58         591.9520
   362.72         593.1463
   362.86         594.1528
   363.00         594.8903
   363.14         595.2854
   363.28         595.2925
   363.42         594.9030
   363.56         594.1567
   363.70         593.1050
   363.84         591.7893
   363.98         590.2477
   364.12         588.4960
   364.26         586.5253
   364.40         584.3709
   364.54         582.1405
   364.68         579.9878
   364.82         578.0833
   364.96         576.5850
   365.10         575.6056
   365.24         575.1593
   365.38         575.1530
   365.52         575.4310
   365.66         575.8288
   365.80         576.2240
   365.94         576.5269
   366.08         576.6575
   366.22         576.5684
   366.36         576.2660
   366.50         575.7966
   366.64         575.2273
   366.78         574.6396
   366.92         574.1067
   367.06         573.6604
   367.20         573.2717
   367.34         572.8736
   367.48         572.3951
   367.62         571.7626
   367.76         570.9148
   367.90         569.8534
   368.04         568.6524
   368.18         567.3888
   368.32         566.0705
   368.46         564.6419
   368.60         563.0488
   368.74         561.3031
   368.88         559.5142
   369.02         557.8461
   369.16         556.4277
   369.30         555.3282
   369.44         554.5690
   369.58         554.1153
   369.72         553.8884
   369.86         553.7902
   370.00         553.7272
   370.14         553.6414
   370.28         553.5095
   370.42         553.3129
   370.56         553.0278
   370.70         552.6123
   370.84         552.0071
   370.98         551.1666
   371.12         550.1015
   371.26         548.9126
   371.40         547.7502
   371.54         546.7229
   371.68         545.8497
   371.82         545.0991
   371.96         544.4176
   372.10         543.6953
   372.24         542.7800
   372.38         541.5714
   372.52         540.0726
   372.66         538.3588
   372.80         536.5451
   372.94         534.7819
   373.08         533.2121
   373.22         531.8985
   373.36         530.7836
   373.50         529.7441
   373.64         528.6563
   373.78         527.4184
   373.92         525.9745
   374.06         524.3347
   374.20         522.6009
   374.34         520.9515
   374.48         519.5596
   374.62         518.5202
   374.76         517.8818
   374.90         517.7422
   375.04         518.2566
   375.18         519.5218
   375.32         521.4764
   375.46         523.9138
   375.60         526.5201
   375.74         528.8766
   375.88         530.5273
   376.02         531.1349
   376.16         530.6043
   376.30         529.1025
   376.44         526.9798
   376.58         524.6663
   376.72         522.5873
   376.86         521.0577
   377.00         520.1975
   377.14         519.9727
   377.28         520.2812
   377.42         520.9860
   377.56         521.9361
   377.70         522.9662
   377.84         523.8792
   377.98         524.4658
   378.12         524.5340
   378.26         523.9166
   378.40         522.4758
   378.54         520.1263
   378.68         516.8879
   378.82         512.9148
   378.96         508.4564
   379.10         503.7884
   379.24         499.1833
   379.38         494.9172
   379.52         491.2659
   379.66         488.4979
   379.80         486.8265
   379.94         486.3251
   380.08         486.9093
   380.22         488.3766
   380.36         490.4349
   380.50         492.7384
   380.64         494.9422
   380.78         496.7409
   380.92         497.9007
   381.06         498.2959
   381.20         497.9217
   381.34         496.8871
   381.48         495.3738
   381.62         493.5677
   381.76         491.6099
   381.90         489.5701
   382.04         487.4187
   382.18         485.0362
   382.32         482.2493
   382.46         478.8861
   382.60         474.8959
   382.74         470.4360
   382.88         465.8308
   383.02         461.4921
   383.16         457.8457
   383.30         455.2366
   383.44         453.8798
   383.58         453.8761
   383.72         455.2145
   383.86         457.7636
   384.00         461.3015
   384.14         465.5274
   384.28         470.0653
   384.42         474.4938
   384.56         478.3921
   384.70         481.4122
   384.84         483.3716
   384.98         484.3049
   385.12         484.4337
   385.26         484.0830
   385.40         483.5622
   385.54         483.0794
   385.68         482.7557
   385.82         482.6477
   385.96         482.7316
   386.10         482.9421
   386.24         483.2170
   386.38         483.4949
   386.52         483.7097
   386.66         483.7837
   386.80         483.6250
   386.94         483.1603
   387.08         482.3601
   387.22         481.2234
   387.36         479.7347
   387.50         477.8261
   387.64         475.3773
   387.78         472.2614
   387.92         468.4370
   388.06         464.0130
   388.20         459.2483
   388.34         454.5043
   388.48         450.1777
   388.62         446.6513
   388.76         444.2585
   388.90         443.2355
   389.04         443.6757
   389.18         445.5094
   389.32         448.5262
   389.46         452.4224
   389.60         456.8381
   389.74         461.3683
   389.88         465.5783
   390.02         469.0698
   390.16         471.5674
   390.30         472.9778
   390.44         473.3939
   390.58         473.0197
   390.72         472.0547
   390.86         470.6246
   391.00         468.7897
   391.14         466.5878
   391.28         464.0452
   391.42         461.1813
   391.56         458.0312
   391.70         454.6335
   391.84         450.9950
   391.98         447.0686
   392.12         442.7670
   392.26         438.0353
   392.40         432.9357
   392.54         427.6782
   392.68         422.5814
   392.82         418.0023
   392.96         414.2768
   393.10         411.6658
   393.24         410.3402
   393.38         410.3882
   393.52         411.8183
   393.66         414.5600
   393.80         418.4401
   393.94         423.1807
   394.08         428.4145
   394.22         433.7081
   394.36         438.6213
   394.50         442.7714
   394.64         445.9002
   394.78         447.9174
   394.92         448.8860
   395.06         448.9353
   395.20         448.1350
   395.34         446.4378
   395.48         443.6855
   395.62         439.6649
   395.76         434.2315
   395.90         427.4368
   396.04         419.5648
   396.18         411.0892
   396.32         402.5952
   396.46         394.6960
   396.60         387.9692
   396.74         382.9016
   396.88         379.8636
   397.02         379.0835
   397.16         380.6019
   397.30         384.2553
   397.44         389.6757
   397.58         396.3344
   397.72         403.6237
   397.86         410.9257
   398.00         417.6755
   398.14         423.4310
   398.28         427.9574
   398.42         431.2624
   398.56         433.5286
   398.70         434.9953
   398.84         435.8642
   398.98         436.2745
   399.12         436.3272
   399.26         436.1066
   399.40         435.6857
   399.54         435.1247
   399.68         434.4803
   399.82         433.8102
   399.96         433.1513
   400.10         432.5148
   400.24         431.9009
   400.38         431.2978
   400.52         430.6769
   400.66         430.0044
   400.80         429.2639
   400.94         428.4496
   401.08         427.5380
   401.22         426.4821
   401.36         425.2242
   401.50         423.7180
   401.64         421.9623
   401.78         420.0104
   401.92         417.9479
   402.06         415.8782
   402.20         413.9146
   402.34         412.1660
   402.48         410.7178
   402.62         409.6285
   402.76         408.9437
   402.90         408.6865
   403.04         408.8422
   403.18         409.3541
   403.32         410.1181
   403.46         410.9912
   403.60         411.8259
   403.74         412.5219
   403.88         413.0441
   404.02         413.4040
   404.16         413.6479
   404.30         413.8407
   404.44         414.0407
   404.58         414.2940
   404.72         414.6277
   404.86         415.0414
   405.00         415.5095
   405.14         415.9943
   405.28         416.4530
   405.42         416.8184
   405.56         417.0053
   405.70         416.9528
   405.84         416.6312
   405.98         416.0309
   406.12         415.1645
   406.26         414.0665
   406.40         412.7771
   406.54         411.3199
   406.68         409.7169
   406.82         408.0229
   406.96         406.3198
   407.10         404.6946
   407.24         403.2267
   407.38         401.9833
   407.52         401.0262
   407.66         400.4203
   407.80         400.2209
   407.94         400.4311
   408.08         400.9715
   408.22         401.6951
   408.36         402.3971
   408.50         402.8045
   408.64         402.6049
   408.78         401.4949
   408.92         399.2396
   409.06         395.7517
   409.20         391.1443
   409.34         385.7360
   409.48         379.9941
   409.62         374.4319
   409.76         369.5231
   409.90         365.6661
   410.04         363.1708
   410.18         362.2316
   410.32         362.8903
   410.46         365.0159
   410.60         368.3184
   410.74         372.3914
   410.88         376.7684
   411.02         380.9799
   411.16         384.6151
   411.30         387.3754
   411.44         389.1055
   411.58         389.8165
   411.72         389.6644
   411.86         388.8659
   412.00         387.6236
   412.14         386.0942
   412.28         384.3967
   412.42         382.6445
   412.56         380.9652
   412.70         379.4869
   412.84         378.2907
   412.98         377.3843
   413.12         376.7185
   413.26         376.2199
   413.40         375.8234
   413.54         375.4871
   413.68         375.1826
   413.82         374.8846
   413.96         374.5630
   414.10         374.1880
   414.24         373.7405
   414.38         373.1978
   414.52         372.5343
   414.66         371.7410
   414.80         370.8309
   414.94         369.8465
   415.08         368.8513
   415.22         367.9031
   415.36         367.0383
   415.50         366.2671
   415.64         365.5844
   415.78         364.9800
   415.92         364.4343
   416.06         363.9105
   416.20         363.3568
   416.34         362.7217
   416.48         361.9652
   416.62         361.0561
   416.76         359.9843
   416.90         358.7729
   417.04         357.4650
   417.18         356.1204
   417.32         354.8098
   417.46         353.5929
   417.60         352.5143
   417.74         351.6043
   417.88         350.8714
   418.02         350.3003
   418.16         349.8615
   418.30         349.5161
   418.44         349.2034
   418.58         348.8353
   418.72         348.3083
   418.86         347.5278
   419.00         346.4344
   419.14         345.0274
   419.28         343.3757
   419.42         341.6118
   419.56         339.8952
   419.70         338.3717
   419.84         337.1566
   419.98         336.3334
   420.12         335.9525
   420.26         336.0322
   420.40         336.5490
   420.54         337.4222
   420.68         338.5260
   420.82         339.7116
   420.96         340.8156
   421.10         341.6770
   421.24         342.1760
   421.38         342.2533
   421.52         341.9096
   421.66         341.2042
   421.80         340.2364
   421.94         339.1125
   422.08         337.9279
   422.22         336.7582
   422.36         335.6575
   422.50         334.6698
   422.64         333.8402
   422.78         333.2034
   422.92         332.7638
   423.06         332.4952
   423.20         332.3491
   423.34         332.2625
   423.48         332.1694
   423.62         332.0102
   423.76         331.7426
   423.90         331.3463
   424.04         330.8150
   424.18         330.1592
   424.32         329.4163
   424.46         328.6424
   424.60         327.8928
   424.74         327.2012
   424.88         326.5711
   425.02         325.9981
   425.16         325.4981
   425.30         325.0995
   425.44         324.8177
   425.58         324.6529
   425.72         324.5984
   425.86         324.6272
   426.00         324.6875
   426.14         324.7266
   426.28         324.7098
   426.42         324.6270
   426.56         324.4879
   426.70         324.3092
   426.84         324.1136
   426.98         323.9299
   427.12         323.7903
   427.26         323.7228
   427.40         323.7393
   427.54         323.8414
   427.68         324.0228
   427.82         324.2545
   427.96         324.4794
   428.10         324.6245
   428.24         324.6283
   428.38         324.4473
   428.52         324.0499
   428.66         323.4291
   428.80         322.6036
   428.94         321.5969
   429.08         320.4329
   429.22         319.1398
   429.36         317.7507
   429.50         316.3000
   429.64         314.8209
   429.78         313.3477
   429.92         311.9133
   430.06         310.5476
   430.20         309.2879
   430.34         308.1903
   430.48         307.3304
   430.62         306.7842
   430.76         306.6053
   430.90         306.8150
   431.04         307.3889
   431.18         308.2487
   431.32         309.2778
   431.46         310.3462
   431.60         311.3494
   431.74         312.2305
   431.88         312.9572
   432.02         313.4984
   432.16         313.8154
   432.30         313.8545
   432.44         313.5475
   432.58         312.8056
   432.72         311.5198
   432.86         309.5888
   433.00         306.9710
   433.14         303.7251
   433.28         300.0101
   433.42         296.0657
   433.56         292.1862
   433.70         288.6800
   433.84         285.8259
   433.98         283.8415
   434.12         282.8772
   434.26         283.0112
   434.40         284.2069
   434.54         286.2937
   434.68         289.0056
   434.82         292.0233
   434.96         295.0224
   435.10         297.7251
   435.24         299.9360
   435.38         301.5719
   435.52         302.6656
   435.66         303.3292
   435.80         303.6980
   435.94         303.8737
   436.08         303.9086
   436.22         303.8205
   436.36         303.6064
   436.50         303.2513
   436.64         302.7472
   436.78         302.1172
   436.92         301.3956
   437.06         300.5867
   437.20         299.6776
   437.34         298.6623
   437.48         297.5528
   437.62         296.3842
   437.76         295.2038
   437.90         294.0514
   438.04         292.9414
   438.18         291.8633
   438.32         290.8126
   438.46         289.8123
   438.60         288.9010
   438.74         288.1145
   438.88         287.4771
   439.02         286.9992
   439.16         286.6732
   439.30         286.4745
   439.44         286.3680
   439.58         286.3067
   439.72         286.2449
   439.86         286.1543
   440.00         286.0302
   440.14         285.8822
   440.28         285.7033
   440.42         285.4646
   440.56         285.1352
   440.70         284.7005
   440.84         284.1706
   440.98         283.5641
   441.12         282.8876
   441.26         282.1301
   441.40         281.2669
   441.54         280.2726
   441.68         279.1331
   441.82         277.8500
   441.96         276.4435
   442.10         274.9608
   442.24         273.4719
   442.38         272.0494
   442.52         270.7650
   442.66         269.6973
   442.80         268.9131
   442.94         268.4504
   443.08         268.3217
   443.22         268.5141
   443.36         268.9966
   443.50         269.7257
   443.64         270.6462
   443.78         271.6998
   443.92         272.8224
   444.06         273.9377
   444.20         274.9697
   444.34         275.8596
   444.48         276.5638
   444.62         277.0542
   444.76         277.3294
   444.90         277.4071
   445.04         277.3094
   445.18         277.0608
   445.32         276.6794
   445.46         276.1755
   445.60         275.5644
   445.74         274.8718
   445.88         274.1377
   446.02         273.4117
   446.16         272.7337
   446.30         272.1307
   446.44         271.6294
   446.58         271.2530
   446.72         271.0048
   446.86         270.8736
   447.00         270.8451
   447.14         270.9024
   447.28         271.0319
   447.42         271.2213
   447.56         271.4476
   447.70         271.6772
   447.84         271.8750
   447.98         272.0071
   448.12         272.0461
   448.26         271.9744
   448.40         271.7828
   448.54         271.4718
   448.68         271.0526
   448.82         270.5517
   448.96         270.0088
   449.10         269.4661
   449.24         268.9604
   449.38         268.5305
   449.52         268.2215
   449.66         268.0724
   449.80         268.1075
   449.94         268.3343
   450.08         268.7288
   450.22         269.2362
   450.36         269.7892
   450.50         270.3196
   450.64         270.7661
   450.78         271.0957
   450.92         271.3059
   451.06         271.3958
   451.20         271.3579
   451.34         271.1878
   451.48         270.8860
   451.62         270.4551
   451.76         269.8975
   451.90         269.2158
   452.04         268.4171
   452.18         267.5144
   452.32         266.5319
   452.46         265.4952
   452.60         264.4083
   452.74         263.2455
   452.88         261.9737
