# File HD167451
# Wavelength [nm]    Normalized Amplitude
   349.70         1162.2623
   349.84         1163.4189
   349.98         1165.8754
   350.12         1169.3671
   350.26         1173.3465
   350.40         1177.2994
   350.54         1180.8852
   350.68         1183.8240
   350.82         1185.9382
   350.96         1187.1750
   351.10         1187.5700
   351.24         1187.1750
   351.38         1185.9382
   351.52         1183.8240
   351.66         1180.8852
   351.80         1177.2994
   351.94         1173.3465
   352.08         1169.3671
   352.22         1165.8754
   352.36         1163.4189
   352.50         1162.2623
   352.64         1162.3698
   352.78         1163.5570
   352.92         1165.6098
   353.06         1168.3297
   353.20         1171.4554
   353.34         1174.6368
   353.48         1177.5553
   353.62         1179.7855
   353.76         1180.9111
   353.90         1180.8438
   354.04         1179.7566
   354.18         1177.9909
   354.32         1175.9129
   354.46         1173.8385
   354.60         1171.9488
   354.74         1170.4091
   354.88         1169.4583
   355.02         1169.0891
   355.16         1169.0440
   355.30         1169.0876
   355.44         1168.9587
   355.58         1168.3174
   355.72         1167.0896
   355.86         1165.5202
   356.00         1163.6992
   356.14         1161.4842
   356.28         1158.8010
   356.42         1156.0565
   356.56         1154.0700
   356.70         1153.4837
   356.84         1154.4628
   356.98         1156.6691
   357.12         1159.6053
   357.26         1162.8982
   357.40         1166.2207
   357.54         1169.1275
   357.68         1171.0626
   357.82         1171.5894
   357.96         1170.5142
   358.10         1167.9767
   358.24         1164.4945
   358.38         1160.6946
   358.52         1156.9222
   358.66         1153.2431
   358.80         1149.9415
   358.94         1147.5657
   359.08         1146.4341
   359.22         1146.4223
   359.36         1147.0031
   359.50         1147.4122
   359.64         1147.0444
   359.78         1145.7570
   359.92         1143.6931
   360.06         1141.0744
   360.20         1138.2992
   360.34         1135.8887
   360.48         1134.3602
   360.62         1134.1694
   360.76         1135.5306
   360.90         1138.2030
   361.04         1141.5994
   361.18         1145.1207
   361.32         1148.2704
   361.46         1150.6718
   361.60         1152.0579
   361.74         1152.2343
   361.88         1151.0418
   362.02         1148.3745
   362.16         1144.4298
   362.30         1139.7579
   362.44         1135.0533
   362.58         1130.9480
   362.72         1127.8903
   362.86         1126.1745
   363.00         1125.7974
   363.14         1126.4827
   363.28         1127.8083
   363.42         1129.2800
   363.56         1130.5652
   363.70         1131.5381
   363.84         1132.1573
   363.98         1132.4626
   364.12         1132.6492
   364.26         1132.9827
   364.40         1133.6017
   364.54         1134.5388
   364.68         1135.9174
   364.82         1137.9036
   364.96         1140.3374
   365.10         1142.7576
   365.24         1144.6486
   365.38         1145.5290
   365.52         1145.1242
   365.66         1143.3638
   365.80         1140.3418
   365.94         1136.3416
   366.08         1131.8162
   366.22         1127.2402
   366.36         1122.9197
   366.50         1119.0035
   366.64         1115.5274
   366.78         1112.4451
   366.92         1109.7083
   367.06         1107.3599
   367.20         1105.5243
   367.34         1104.2468
   367.48         1103.5177
   367.62         1103.3669
   367.76         1103.8091
   367.90         1104.7448
   368.04         1106.0113
   368.18         1107.6169
   368.32         1109.6295
   368.46         1111.6490
   368.60         1112.6848
   368.74         1111.6866
   368.88         1108.1358
   369.02         1102.2503
   369.16         1094.6405
   369.30         1085.8996
   369.44         1076.6874
   369.58         1067.8494
   369.72         1060.1283
   369.86         1053.8566
   370.00         1049.0682
   370.14         1045.8330
   370.28         1044.1568
   370.42         1043.7731
   370.56         1044.4207
   370.70         1045.9410
   370.84         1048.0945
   370.98         1050.4624
   371.12         1052.4899
   371.26         1053.9296
   371.40         1055.1349
   371.54         1056.7264
   371.68         1059.0397
   371.82         1061.9804
   371.96         1065.2975
   372.10         1068.6295
   372.24         1071.4283
   372.38         1073.1246
   372.52         1073.3101
   372.66         1071.9518
   372.80         1069.4569
   372.94         1066.3706
   373.08         1063.3009
   373.22         1061.0817
   373.36         1060.4197
   373.50         1061.4972
   373.64         1063.9853
   373.78         1067.1525
   373.92         1070.0925
   374.06         1072.0589
   374.20         1072.6461
   374.34         1071.6890
   374.48         1069.2618
   374.62         1065.7366
   374.76         1061.8035
   374.90         1058.5279
   375.04         1056.9981
   375.18         1057.8696
   375.32         1061.4243
   375.46         1067.5245
   375.60         1075.4118
   375.74         1083.7787
   375.88         1090.9100
   376.02         1094.9610
   376.16         1094.5277
   376.30         1089.2859
   376.44         1080.1582
   376.58         1068.9371
   376.72         1057.8041
   376.86         1048.8463
   377.00         1043.7382
   377.14         1043.5966
   377.28         1048.8147
   377.42         1059.0627
   377.56         1073.3521
   377.70         1090.1400
   377.84         1107.6825
   377.98         1124.2920
   378.12         1138.3302
   378.26         1148.3473
   378.40         1153.2394
   378.54         1152.3468
   378.68         1145.6833
   378.82         1134.0263
   378.96         1118.6788
   379.10         1101.1059
   379.24         1082.7220
   379.38         1064.9203
   379.52         1049.1155
   379.66         1036.6295
   379.80         1028.6135
   379.94         1025.9795
   380.08         1029.1297
   380.22         1037.7215
   380.36         1050.7792
   380.50         1066.8803
   380.64         1084.1746
   380.78         1100.5630
   380.92         1114.1158
   381.06         1123.4844
   381.20         1128.2516
   381.34         1128.9264
   381.48         1126.4837
   381.62         1121.9711
   381.76         1116.3820
   381.90         1110.5035
   382.04         1104.7199
   382.18         1098.9353
   382.32         1092.6226
   382.46         1085.0720
   382.60         1075.7471
   382.74         1064.4931
   382.88         1051.6751
   383.02         1038.1684
   383.16         1025.1141
   383.30         1013.8268
   383.44         1005.7661
   383.58         1002.2742
   383.72         1004.2386
   383.86         1011.8169
   384.00         1024.2576
   384.14         1040.0737
   384.28         1057.4747
   384.42         1074.5811
   384.56         1089.5446
   384.70         1100.8638
   384.84         1107.7394
   384.98         1110.2433
   385.12         1109.2093
   385.26         1105.9046
   385.40         1101.6153
   385.54         1097.3415
   385.68         1093.7514
   385.82         1091.2329
   385.96         1089.9251
   386.10         1089.7723
   386.24         1090.6060
   386.38         1092.1561
   386.52         1094.0605
   386.66         1095.9100
   386.80         1097.2495
   386.94         1097.6053
   387.08         1096.5657
   387.22         1093.8348
   387.36         1089.1912
   387.50         1082.3925
   387.64         1073.1395
   387.78         1061.1749
   387.92         1046.5560
   388.06         1029.8754
   388.20         1012.1825
   388.34         994.7958
   388.48         979.0819
   388.62         966.3514
   388.76         957.8431
   388.90         954.4535
   389.04         956.5487
   389.18         964.0214
   389.32         976.2356
   389.46         991.9933
   389.60         1009.8743
   389.74         1028.5247
   389.88         1046.4763
   390.02         1062.2862
   390.16         1075.0400
   390.30         1084.5067
   390.44         1090.9667
   390.58         1094.9115
   390.72         1096.8755
   390.86         1097.3067
   391.00         1096.3938
   391.14         1094.1698
   391.28         1090.7026
   391.42         1086.0454
   391.56         1080.2458
   391.70         1073.5265
   391.84         1066.2295
   391.98         1058.5532
   392.12         1050.5916
   392.26         1042.6615
   392.40         1035.2629
   392.54         1028.8213
   392.68         1023.8670
   392.82         1020.9240
   392.96         1020.1093
   393.10         1021.1427
   393.24         1023.5609
   393.38         1026.8801
   393.52         1030.5722
   393.66         1034.1217
   393.80         1037.2056
   393.94         1039.6345
   394.08         1041.2374
   394.22         1041.9355
   394.36         1041.7996
   394.50         1040.8503
   394.64         1039.0263
   394.78         1036.4984
   394.92         1033.6099
   395.06         1030.4777
   395.20         1026.8747
   395.34         1022.3794
   395.48         1016.3663
   395.62         1008.0125
   395.76         996.5983
   395.90         981.8507
   396.04         964.1052
   396.18         944.3509
   396.32         924.0977
   396.46         904.9793
   396.60         888.4432
   396.74         875.7351
   396.88         867.8947
   397.02         865.5196
   397.16         868.5012
   397.30         876.1768
   397.44         887.5678
   397.58         901.4213
   397.72         916.4281
   397.86         931.4096
   398.00         945.2897
   398.14         957.1489
   398.28         966.4216
   398.42         973.0458
   398.56         977.3690
   398.70         979.8396
   398.84         980.7957
   398.98         980.4381
   399.12         978.9055
   399.26         976.3515
   399.40         973.0004
   399.54         969.1330
   399.68         964.9550
   399.82         960.5888
   399.96         956.2188
   400.10         952.1025
   400.24         948.4680
   400.38         945.4511
   400.52         943.0495
   400.66         941.1583
   400.80         939.6602
   400.94         938.4575
   401.08         937.3848
   401.22         936.1145
   401.36         934.1961
   401.50         931.2331
   401.64         927.1526
   401.78         922.2717
   401.92         917.0698
   402.06         912.0240
   402.20         907.5574
   402.34         903.9550
   402.48         901.4530
   402.62         900.3457
   402.76         900.8445
   402.90         902.8728
   403.04         906.0716
   403.18         909.9574
   403.32         913.9934
   403.46         917.6349
   403.60         920.3915
   403.74         921.8834
   403.88         922.0230
   404.02         921.1125
   404.16         919.7487
   404.30         918.6349
   404.44         918.2184
   404.58         918.5488
   404.72         919.4604
   404.86         920.7211
   405.00         922.0747
   405.14         923.2504
   405.28         924.0074
   405.42         924.1570
   405.56         923.4433
   405.70         921.5423
   405.84         918.2167
   405.98         913.3937
   406.12         907.1659
   406.26         899.6530
   406.40         891.0137
   406.54         881.5943
   406.68         871.8580
   406.82         862.2987
   406.96         853.4024
   407.10         845.5890
   407.24         839.2423
   407.38         834.6213
   407.52         831.7329
   407.66         830.4027
   407.80         830.3639
   407.94         831.2681
   408.08         832.6360
   408.22         833.8665
   408.36         834.4454
   408.50         834.0232
   408.64         832.2725
   408.78         828.7567
   408.92         822.9822
   409.06         814.7589
   409.20         804.3880
   409.34         792.5317
   409.48         780.1529
   409.62         768.3884
   409.76         758.3620
   409.90         751.0084
   410.04         746.9017
   410.18         746.3427
   410.32         749.3828
   410.46         755.6374
   410.60         764.2942
   410.74         774.3207
   410.88         784.6304
   411.02         794.1686
   411.16         802.0275
   411.30         807.6876
   411.44         811.0989
   411.58         812.6038
   411.72         812.9100
   411.86         812.8708
   412.00         813.2165
   412.14         814.4122
   412.28         816.5778
   412.42         819.5565
   412.56         822.9591
   412.70         826.3041
   412.84         829.2344
   412.98         831.3574
   413.12         832.1940
   413.26         831.4544
   413.40         829.1854
   413.54         825.7341
   413.68         821.6073
   413.82         817.3610
   413.96         813.5253
   414.10         810.4479
   414.24         808.3626
   414.38         807.4404
   414.52         807.6311
   414.66         808.7128
   414.80         810.4028
   414.94         812.3475
   415.08         814.1588
   415.22         815.4948
   415.36         816.1421
   415.50         816.0226
   415.64         815.0945
   415.78         813.3836
   415.92         811.0742
   416.06         808.4510
   416.20         805.7643
   416.34         803.1554
   416.48         800.7073
   416.62         798.4646
   416.76         796.4132
   416.90         794.5473
   417.04         792.8023
   417.18         791.0468
   417.32         789.2801
   417.46         787.5934
   417.60         785.9382
   417.74         784.2085
   417.88         782.4225
   418.02         780.6467
   418.16         778.9280
   418.30         777.2998
   418.44         775.8234
   418.58         774.6099
   418.72         773.7902
   418.86         773.4817
   419.00         773.7325
   419.14         774.5255
   419.28         775.7940
   419.42         777.4218
   419.56         779.3062
   419.70         781.3845
   419.84         783.6040
   419.98         785.8574
   420.12         787.9021
   420.26         789.4635
   420.40         790.4766
   420.54         790.9973
   420.68         790.9930
   420.82         790.4385
   420.96         789.3808
   421.10         787.8556
   421.24         785.9232
   421.38         783.7750
   421.52         781.6122
   421.66         779.5500
   421.80         777.6797
   421.94         776.0193
   422.08         774.5057
   422.22         773.0763
   422.36         771.6571
   422.50         770.1372
   422.64         768.4479
   422.78         766.6550
   422.92         764.9437
   423.06         763.4858
   423.20         762.3738
   423.34         761.6630
   423.48         761.3697
   423.62         761.4427
   423.76         761.7886
   423.90         762.3140
   424.04         762.8674
   424.18         763.1521
   424.32         762.8520
   424.46         761.7715
   424.60         759.8529
   424.74         757.2027
   424.88         754.0563
   425.02         750.6463
   425.16         747.1390
   425.30         743.6724
   425.44         740.3859
   425.58         737.4087
   425.72         734.8209
   425.86         732.6511
   426.00         730.8763
   426.14         729.4345
   426.28         728.1985
   426.42         726.9209
   426.56         725.3463
   426.70         723.3607
   426.84         721.0060
   426.98         718.4358
   427.12         715.8272
   427.26         713.3333
   427.40         711.1054
   427.54         709.2817
   427.68         707.9850
   427.82         707.3498
   427.96         707.4766
   428.10         708.3645
   428.24         709.9118
   428.38         711.9819
   428.52         714.4348
   428.66         717.0741
   428.80         719.6514
   428.94         721.9100
   429.08         723.6749
   429.22         724.9502
   429.36         725.8248
   429.50         726.3473
   429.64         726.5251
   429.78         726.3563
   429.92         725.9037
   430.06         725.3081
   430.20         724.6689
   430.34         723.9870
   430.48         723.1796
   430.62         722.1211
   430.76         720.7390
   430.90         719.0360
   431.04         717.0519
   431.18         714.8408
   431.32         712.5419
   431.46         710.4062
   431.60         708.6550
   431.74         707.4563
   431.88         706.9103
   432.02         706.9390
   432.16         707.3151
   432.30         707.7386
   432.44         707.8082
   432.58         707.0004
   432.72         704.7169
   432.86         700.3504
   433.00         693.4301
   433.14         683.8398
   433.28         671.9382
   433.42         658.4550
   433.56         644.2931
   433.70         630.4163
   433.84         617.7756
   433.98         607.2013
   434.12         599.2899
   434.26         594.4852
   434.40         593.1547
   434.54         595.3721
   434.68         600.8316
   434.82         608.9956
   434.96         619.1542
   435.10         630.4457
   435.24         641.9647
   435.38         652.9255
   435.52         662.7740
   435.66         671.1979
   435.80         678.0888
   435.94         683.4313
   436.08         687.2114
   436.22         689.4371
   436.36         690.1731
   436.50         689.6256
   436.64         688.1622
   436.78         686.2472
   436.92         684.3786
   437.06         682.8480
   437.20         681.6581
   437.34         680.7394
   437.48         679.9941
   437.62         679.2051
   437.76         678.1008
   437.90         676.5245
   438.04         674.5292
   438.18         672.2880
   438.32         669.9551
   438.46         667.6505
   438.60         665.5140
   438.74         663.7603
   438.88         662.6377
   439.02         662.3264
   439.16         662.9492
   439.30         664.5299
   439.44         666.8916
   439.58         669.6554
   439.72         672.3700
   439.86         674.6810
   440.00         676.2986
   440.14         676.9569
   440.28         676.4729
   440.42         674.7686
   440.56         671.8654
   440.70         667.8311
   440.84         662.7811
   440.98         656.9329
   441.12         650.6161
   441.26         644.2333
   441.40         638.1327
   441.54         632.4688
   441.68         627.2460
   441.82         622.4724
   441.96         618.1628
   442.10         614.2585
   442.24         610.7147
   442.38         607.6210
   442.52         605.0987
   442.66         603.2044
   442.80         602.0034
   442.94         601.6073
   443.08         602.1751
   443.22         603.8416
   443.36         606.6340
   443.50         610.4464
   443.64         615.0068
   443.78         619.9782
   443.92         625.0525
   444.06         629.9034
   444.20         634.2373
   444.34         637.9355
   444.48         641.0556
   444.62         643.6576
   444.76         645.7535
   444.90         647.4595
   445.04         648.9724
   445.18         650.4156
   445.32         651.7773
   445.46         652.9028
   445.60         653.5342
   445.74         653.2734
   445.88         651.6059
   446.02         648.1967
   446.16         643.0802
   446.30         636.5785
   446.44         629.1965
   446.58         621.5265
   446.72         614.1920
   446.86         607.8152
   447.00         602.9504
   447.14         599.9984
   447.28         599.1593
   447.42         600.4779
   447.56         603.8168
   447.70         608.8047
   447.84         614.9235
   447.98         621.5652
   448.12         628.0849
   448.26         633.9207
   448.40         638.6809
   448.54         642.2473
   448.68         644.7729
   448.82         646.4855
   448.96         647.5532
   449.10         648.1168
   449.24         648.2769
   449.38         648.0574
   449.52         647.5094
   449.66         646.7766
   449.80         645.9984
   449.94         645.2067
   450.08         644.3286
   450.22         643.3000
   450.36         642.2096
   450.50         641.2082
   450.64         640.3364
   450.78         639.5730
   450.92         638.9524
   451.06         638.5666
   451.20         638.5020
