# File HD17971
# Wavelength [nm]    Normalized Amplitude
   349.70         41.6448
   349.84         41.5181
   349.98         41.4035
   350.12         41.2734
   350.26         41.1148
   350.40         40.9327
   350.54         40.7431
   350.68         40.5622
   350.82         40.4066
   350.96         40.2984
   351.10         40.2593
   351.24         40.2984
   351.38         40.4066
   351.52         40.5622
   351.66         40.7431
   351.80         40.9327
   351.94         41.1148
   352.08         41.2734
   352.22         41.4035
   352.36         41.5181
   352.50         41.6448
   352.64         41.8168
   352.78         42.0592
   352.92         42.3809
   353.06         42.7744
   353.20         43.2232
   353.34         43.7006
   353.48         44.1729
   353.62         44.6066
   353.76         44.9627
   353.90         45.2010
   354.04         45.2938
   354.18         45.2333
   354.32         45.0280
   354.46         44.7021
   354.60         44.3005
   354.74         43.8867
   354.88         43.5293
   355.02         43.2771
   355.16         43.1414
   355.30         43.0974
   355.44         43.0978
   355.58         43.0932
   355.72         43.0462
   355.86         42.9282
   356.00         42.7107
   356.14         42.3803
   356.28         41.9469
   356.42         41.4305
   356.56         40.8655
   356.70         40.3102
   356.84         39.8373
   356.98         39.5159
   357.12         39.3945
   357.26         39.4836
   357.40         39.7473
   357.54         40.1104
   357.68         40.4756
   357.82         40.7542
   357.96         40.8957
   358.10         40.8897
   358.24         40.7521
   358.38         40.5156
   358.52         40.2245
   358.66         39.9288
   358.80         39.6820
   358.94         39.5272
   359.08         39.4852
   359.22         39.5622
   359.36         39.7501
   359.50         40.0175
   359.64         40.3056
   359.78         40.5371
   359.92         40.6451
   360.06         40.6045
   360.20         40.4384
   360.34         40.2024
   360.48         39.9639
   360.62         39.7829
   360.76         39.6974
   360.90         39.7237
   361.04         39.8718
   361.18         40.1469
   361.32         40.5368
   361.46         41.0172
   361.60         41.5565
   361.74         42.1114
   361.88         42.6295
   362.02         43.0563
   362.16         43.3412
   362.30         43.4512
   362.44         43.3948
   362.58         43.2235
   362.72         43.0040
   362.86         42.7917
   363.00         42.6190
   363.14         42.4973
   363.28         42.4333
   363.42         42.4462
   363.56         42.5566
   363.70         42.7682
   363.84         43.0598
   363.98         43.3946
   364.12         43.7436
   364.26         44.0964
   364.40         44.4616
   364.54         44.8683
   364.68         45.3580
   364.82         45.9711
   364.96         46.7383
   365.10         47.6643
   365.24         48.7109
   365.38         49.8063
   365.52         50.8686
   365.66         51.8244
   365.80         52.6240
   365.94         53.2465
   366.08         53.6868
   366.22         53.9473
   366.36         54.0507
   366.50         54.0463
   366.64         53.9951
   366.78         53.9568
   366.92         53.9871
   367.06         54.1316
   367.20         54.4146
   367.34         54.8326
   367.48         55.3597
   367.62         55.9643
   367.76         56.6247
   367.90         57.3335
   368.04         58.1028
   368.18         58.9606
   368.32         59.9385
   368.46         61.0507
   368.60         62.2977
   368.74         63.6902
   368.88         65.2437
   369.02         66.9474
   369.16         68.7392
   369.30         70.5154
   369.44         72.1767
   369.58         73.6608
   369.72         74.9170
   369.86         75.8764
   370.00         76.4744
   370.14         76.6987
   370.28         76.6193
   370.42         76.3871
   370.56         76.1980
   370.70         76.2261
   370.84         76.5576
   370.98         77.1768
   371.12         78.0134
   371.26         79.0083
   371.40         80.1232
   371.54         81.3075
   371.68         82.5091
   371.82         83.6797
   371.96         84.7459
   372.10         85.6009
   372.24         86.1175
   372.38         86.1839
   372.52         85.7751
   372.66         85.0057
   372.80         84.1040
   372.94         83.3166
   373.08         82.8244
   373.22         82.6946
   373.36         82.8649
   373.50         83.1896
   373.64         83.5085
   373.78         83.7026
   373.92         83.7290
   374.06         83.6113
   374.20         83.4112
   374.34         83.2014
   374.48         83.0148
   374.62         82.8259
   374.76         82.6133
   374.90         82.4340
   375.04         82.4272
   375.18         82.7499
   375.32         83.4980
   375.46         84.6456
   375.60         86.0258
   375.74         87.3937
   375.88         88.5223
   376.02         89.2657
   376.16         89.5966
   376.30         89.6225
   376.44         89.5936
   376.58         89.8609
   376.72         90.7669
   376.86         92.5464
   377.00         95.2837
   377.14         98.9130
   377.28         103.2550
   377.42         108.0740
   377.56         113.1091
   377.70         118.0702
   377.84         122.6503
   377.98         126.5448
   378.12         129.4653
   378.26         131.1720
   378.40         131.5196
   378.54         130.4957
   378.68         128.2511
   378.82         125.1097
   378.96         121.5405
   379.10         118.0796
   379.24         115.2180
   379.38         113.3190
   379.52         112.6071
   379.66         113.2108
   379.80         115.1505
   379.94         118.2687
   380.08         122.2394
   380.22         126.6490
   380.36         131.0840
   380.50         135.1716
   380.64         138.5756
   380.78         141.0240
   380.92         142.3615
   381.06         142.5728
   381.20         141.7797
   381.34         140.2142
   381.48         138.1529
   381.62         135.8355
   381.76         133.4096
   381.90         130.9165
   382.04         128.3075
   382.18         125.4762
   382.32         122.3171
   382.46         118.7535
   382.60         114.7835
   382.74         110.5712
   382.88         106.4646
   383.02         102.9103
   383.16         100.3211
   383.30         98.9894
   383.44         99.0721
   383.58         100.5887
   383.72         103.4290
   383.86         107.3916
   384.00         112.2142
   384.14         117.5761
   384.28         123.1002
   384.42         128.3912
   384.56         133.1033
   384.70         137.0082
   384.84         140.0526
   384.98         142.3452
   385.12         144.0690
   385.26         145.4202
   385.40         146.6000
   385.54         147.8046
   385.68         149.1776
   385.82         150.7581
   385.96         152.4799
   386.10         154.2172
   386.24         155.8344
   386.38         157.2025
   386.52         158.2035
   386.66         158.7397
   386.80         158.7310
   386.94         158.1160
   387.08         156.8548
   387.22         154.9043
   387.36         152.2070
   387.50         148.7268
   387.64         144.4840
   387.78         139.6020
   387.92         134.3293
   388.06         128.9880
   388.20         123.8955
   388.34         119.3100
   388.48         115.4212
   388.62         112.3862
   388.76         110.3566
   388.90         109.4459
   389.04         109.6649
   389.18         110.9019
   389.32         112.9509
   389.46         115.5643
   389.60         118.5103
   389.74         121.5881
   389.88         124.6127
   390.02         127.4234
   390.16         129.9077
   390.30         131.9995
   390.44         133.6578
   390.58         134.8403
   390.72         135.4971
   390.86         135.5948
   391.00         135.1478
   391.14         134.2122
   391.28         132.8492
   391.42         131.0797
   391.56         128.8504
   391.70         126.0361
   391.84         122.4824
   391.98         118.0683
   392.12         112.7462
   392.26         106.5488
   392.40         99.5992
   392.54         92.1409
   392.68         84.5634
   392.82         77.3907
   392.96         71.2162
   393.10         66.6074
   393.24         64.0225
   393.38         63.7395
   393.52         65.8028
   393.66         70.0062
   393.80         75.9233
   393.94         82.9950
   394.08         90.6295
   394.22         98.2706
   394.36         105.4447
   394.50         111.8029
   394.64         117.1335
   394.78         121.3301
   394.92         124.3455
   395.06         126.1415
   395.20         126.6556
   395.34         125.7936
   395.48         123.4567
   395.62         119.5991
   395.76         114.2897
   395.90         107.7522
   396.04         100.3707
   396.18         92.6718
   396.32         85.2932
   396.46         78.9309
   396.60         74.2498
   396.74         71.7571
   396.88         71.7120
   397.02         74.1222
   397.16         78.7860
   397.30         85.3196
   397.44         93.1913
   397.58         101.7929
   397.72         110.5303
   397.86         118.9057
   398.00         126.5593
   398.14         133.2680
   398.28         138.9258
   398.42         143.5166
   398.56         147.0896
   398.70         149.7453
   398.84         151.6100
   398.98         152.8056
   399.12         153.4366
   399.26         153.5893
   399.40         153.3554
   399.54         152.8708
   399.68         152.3277
   399.82         151.9275
   399.96         151.8121
   400.10         152.0533
   400.24         152.6865
   400.38         153.7289
   400.52         155.1728
   400.66         156.9605
   400.80         158.9711
   400.94         161.0354
   401.08         162.9643
   401.22         164.5965
   401.36         165.8328
   401.50         166.6134
   401.64         166.8915
   401.78         166.6289
   401.92         165.8153
   402.06         164.4983
   402.20         162.7803
   402.34         160.8076
   402.48         158.7629
   402.62         156.8508
   402.76         155.2844
   402.90         154.2558
   403.04         153.8836
   403.18         154.1767
   403.32         155.0398
   403.46         156.3116
   403.60         157.8050
   403.74         159.3378
   403.88         160.7499
   404.02         161.8911
   404.16         162.6167
   404.30         162.8319
   404.44         162.5474
   404.58         161.9037
   404.72         161.1270
   404.86         160.4377
   405.00         159.9806
   405.14         159.8044
   405.28         159.8850
   405.42         160.1650
   405.56         160.5742
   405.70         161.0256
   405.84         161.4143
   405.98         161.6442
   406.12         161.6403
   406.26         161.3302
   406.40         160.6444
   406.54         159.5542
   406.68         158.1226
   406.82         156.5186
   406.96         154.9641
   407.10         153.6487
   407.24         152.6786
   407.38         152.0767
   407.52         151.8198
   407.66         151.8922
   407.80         152.3086
   407.94         153.0940
   408.08         154.2417
   408.22         155.6706
   408.36         157.2081
   408.50         158.6134
   408.64         159.6170
   408.78         159.9343
   408.92         159.3014
   409.06         157.5739
   409.20         154.8041
   409.34         151.2285
   409.48         147.1876
   409.62         143.0376
   409.76         139.1144
   409.90         135.7541
   410.04         133.2961
   410.18         132.0455
   410.32         132.2044
   410.46         133.7965
   410.60         136.6496
   410.74         140.4281
   410.88         144.6798
   411.02         148.9222
   411.16         152.7320
   411.30         155.7881
   411.44         157.8839
   411.58         158.9485
   411.72         159.0503
   411.86         158.3426
   412.00         157.0118
   412.14         155.2763
   412.28         153.3885
   412.42         151.6300
   412.56         150.2995
   412.70         149.6624
   412.84         149.8693
   412.98         150.8985
   413.12         152.5798
   413.26         154.6842
   413.40         156.9941
   413.54         159.3103
   413.68         161.4484
   413.82         163.2438
   413.96         164.5575
   414.10         165.2848
   414.24         165.3864
   414.38         164.9152
   414.52         164.0145
   414.66         162.8802
   414.80         161.6986
   414.94         160.6001
   415.08         159.6641
   415.22         158.9482
   415.36         158.4892
   415.50         158.2877
   415.64         158.3144
   415.78         158.5182
   415.92         158.8044
   416.06         159.0221
   416.20         158.9888
   416.34         158.5396
   416.48         157.5542
   416.62         155.9743
   416.76         153.8391
   416.90         151.3010
   417.04         148.5876
   417.18         145.9420
   417.32         143.5744
   417.46         141.6569
   417.60         140.3449
   417.74         139.7707
   417.88         140.0097
   418.02         141.0499
   418.16         142.7839
   418.30         145.0179
   418.44         147.4984
   418.58         149.9662
   418.72         152.2164
   418.86         154.1104
   419.00         155.5519
   419.14         156.4805
   419.28         156.8964
   419.42         156.8655
   419.56         156.4873
   419.70         155.8706
   419.84         155.1412
   419.98         154.4474
   420.12         153.9350
   420.26         153.7081
   420.40         153.8155
   420.54         154.2649
   420.68         155.0352
   420.82         156.0683
   420.96         157.2584
   421.10         158.4592
   421.24         159.5039
   421.38         160.2360
   421.52         160.5630
   421.66         160.4952
   421.80         160.1254
   421.94         159.5652
   422.08         158.8985
   422.22         158.1828
   422.36         157.4604
   422.50         156.7691
   422.64         156.1522
   422.78         155.6626
   422.92         155.3556
   423.06         155.2813
   423.20         155.4608
   423.34         155.8493
   423.48         156.3303
   423.62         156.7574
   423.76         157.0045
   423.90         157.0012
   424.04         156.7639
   424.18         156.3887
   424.32         155.9859
   424.46         155.6151
   424.60         155.2757
   424.74         154.9625
   424.88         154.7184
   425.02         154.6330
   425.16         154.8298
   425.30         155.4308
   425.44         156.4977
   425.58         157.9872
   425.72         159.7532
   425.86         161.5772
   426.00         163.2162
   426.14         164.4665
   426.28         165.2088
   426.42         165.4188
   426.56         165.1534
   426.70         164.5313
   426.84         163.6970
   426.98         162.7738
   427.12         161.8537
   427.26         161.0150
   427.40         160.3273
   427.54         159.8290
   427.68         159.4984
   427.82         159.2549
   427.96         158.9752
   428.10         158.5121
   428.24         157.7278
   428.38         156.5364
   428.52         154.9260
   428.66         152.9484
   428.80         150.6874
   428.94         148.2425
   429.08         145.7345
   429.22         143.2883
   429.36         141.0149
   429.50         139.0074
   429.64         137.3464
   429.78         136.1127
   429.92         135.3599
   430.06         135.0675
   430.20         135.1590
   430.34         135.5704
   430.48         136.2848
   430.62         137.2977
   430.76         138.5720
   430.90         140.0462
   431.04         141.6530
   431.18         143.3021
   431.32         144.8844
   431.46         146.3314
   431.60         147.6555
   431.74         148.9124
   431.88         150.1412
   432.02         151.3408
   432.16         152.4661
   432.30         153.4071
   432.44         153.9666
   432.58         153.8770
   432.72         152.8800
   432.86         150.8393
   433.00         147.7976
   433.14         143.9542
   433.28         139.6208
   433.42         135.1877
   433.56         131.0791
   433.70         127.6795
   433.84         125.2646
   433.98         124.0113
   434.12         124.0418
   434.26         125.4053
   434.40         128.0385
   434.54         131.7477
   434.68         136.2299
   434.82         141.1282
   434.96         146.0896
   435.10         150.8330
   435.24         155.1880
   435.38         159.0773
   435.52         162.4830
   435.66         165.4160
   435.80         167.8954
   435.94         169.9140
   436.08         171.4058
   436.22         172.2603
   436.36         172.3970
   436.50         171.8534
   436.64         170.8091
   436.78         169.5206
   436.92         168.2019
   437.06         166.9399
   437.20         165.7189
   437.34         164.5086
   437.48         163.3139
   437.62         162.1701
   437.76         161.1017
   437.90         160.0882
   438.04         159.0722
   438.18         157.9897
   438.32         156.8078
   438.46         155.5358
   438.60         154.1845
   438.74         152.7557
   438.88         151.2989
   439.02         149.9422
   439.16         148.8304
   439.30         148.0437
   439.44         147.5873
   439.58         147.4062
   439.72         147.4386
   439.86         147.6772
   440.00         148.1403
   440.14         148.7942
   440.28         149.4932
   440.42         149.9937
   440.56         150.0597
   440.70         149.5636
   440.84         148.5163
   440.98         147.0460
   441.12         145.3527
   441.26         143.6642
   441.40         142.2174
   441.54         141.2338
   441.68         140.8639
   441.82         141.1445
   441.96         142.0125
   442.10         143.3320
   442.24         144.9327
   442.38         146.6751
   442.52         148.4628
   442.66         150.2069
   442.80         151.7981
   442.94         153.1058
   443.08         154.0303
   443.22         154.5568
   443.36         154.7574
   443.50         154.7312
   443.64         154.5485
   443.78         154.2607
   443.92         153.9241
   444.06         153.5962
   444.20         153.3208
   444.34         153.1324
   444.48         153.0711
   444.62         153.1797
   444.76         153.4831
   444.90         153.9789
   445.04         154.6355
   445.18         155.3758
   445.32         156.0692
   445.46         156.5452
   445.60         156.6540
   445.74         156.3556
   445.88         155.7443
   446.02         154.9946
   446.16         154.2852
   446.30         153.7717
   446.44         153.5954
   446.58         153.8633
   446.72         154.5887
   446.86         155.6874
   447.00         157.0468
   447.14         158.5716
   447.28         160.1805
   447.42         161.7654
   447.56         163.1759
   447.70         164.2573
   447.84         164.8822
   447.98         164.9735
   448.12         164.5236
   448.26         163.6211
   448.40         162.4503
   448.54         161.2398
   448.68         160.1852
   448.82         159.3998
   448.96         158.9347
   449.10         158.8187
   449.24         159.0605
   449.38         159.6344
   449.52         160.5064
   449.66         161.6656
   449.80         163.1032
   449.94         164.7668
   450.08         166.5255
   450.22         168.2102
   450.36         169.6852
   450.50         170.8562
   450.64         171.6461
   450.78         171.9843
   450.92         171.8215
   451.06         171.1458
   451.20         169.9884
   451.34         168.4172
   451.48         166.5342
   451.62         164.4773
   451.76         162.3942
   451.90         160.4025
   452.04         158.5757
   452.18         156.9823
   452.32         155.7288
   452.46         154.9270
   452.60         154.6254
   452.74         154.7900
   452.88         155.3444
   453.02         156.2016
   453.16         157.2592
   453.30         158.4120
   453.44         159.5696
   453.58         160.6358
   453.72         161.5078
   453.86         162.1021
   454.00         162.3391
