# File HD17520
# Wavelength [nm]    Normalized Amplitude
   349.70         630.7096
   349.84         632.7067
   349.98         633.8837
   350.12         634.1584
   350.26         633.5869
   350.40         632.3632
   350.54         630.7492
   350.68         629.0256
   350.82         627.4889
   350.96         626.4226
   351.10         626.0396
   351.24         626.4226
   351.38         627.4889
   351.52         629.0256
   351.66         630.7492
   351.80         632.3632
   351.94         633.5869
   352.08         634.1584
   352.22         633.8837
   352.36         632.7067
   352.50         630.7096
   352.64         628.0420
   352.78         624.8987
   352.92         621.5336
   353.06         618.2273
   353.20         615.2539
   353.34         612.8522
   353.48         611.1835
   353.62         610.2998
   353.76         610.1416
   353.90         610.5557
   354.04         611.3021
   354.18         612.0837
   354.32         612.6332
   354.46         612.7845
   354.60         612.4469
   354.74         611.5864
   354.88         610.2681
   355.02         608.6366
   355.16         606.8304
   355.30         604.9370
   355.44         603.0192
   355.58         601.1876
   355.72         599.6047
   355.86         598.3861
   356.00         597.5243
   356.14         596.9212
   356.28         596.4721
   356.42         596.0711
   356.56         595.5488
   356.70         594.6708
   356.84         593.2313
   356.98         591.1281
   357.12         588.3466
   357.26         584.9244
   357.40         580.9506
   357.54         576.5561
   357.68         571.8947
   357.82         567.1573
   357.96         562.5674
   358.10         558.3510
   358.24         554.7069
   358.38         551.7635
   358.52         549.5575
   358.66         548.0891
   358.80         547.3719
   358.94         547.3700
   359.08         547.9320
   359.22         548.8358
   359.36         549.8789
   359.50         550.9247
   359.64         551.8595
   359.78         552.5601
   359.92         552.9257
   360.06         552.8957
   360.20         552.4548
   360.34         551.6427
   360.48         550.5538
   360.62         549.2947
   360.76         547.9612
   360.90         546.6487
   361.04         545.4493
   361.18         544.4450
   361.32         543.6742
   361.46         543.1184
   361.60         542.7330
   361.74         542.4961
   361.88         542.4204
   362.02         542.4949
   362.16         542.6470
   362.30         542.7267
   362.44         542.5943
   362.58         542.2143
   362.72         541.6034
   362.86         540.7932
   363.00         539.8613
   363.14         538.9327
   363.28         538.1367
   363.42         537.5934
   363.56         537.4043
   363.70         537.6418
   363.84         538.3299
   363.98         539.4311
   364.12         540.8780
   364.26         542.5718
   364.40         544.3887
   364.54         546.1842
   364.68         547.7857
   364.82         549.0580
   364.96         549.9429
   365.10         550.4452
   365.24         550.5819
   365.38         550.3372
   365.52         549.6850
   365.66         548.6388
   365.80         547.2636
   365.94         545.6529
   366.08         543.9092
   366.22         542.1302
   366.36         540.3978
   366.50         538.7543
   366.64         537.2236
   366.78         535.8451
   366.92         534.6772
   367.06         533.7959
   367.20         533.2374
   367.34         532.9845
   367.48         532.9621
   367.62         533.0120
   367.76         532.9570
   367.90         532.6565
   368.04         532.0209
   368.18         531.0416
   368.32         529.8136
   368.46         528.4547
   368.60         527.0264
   368.74         525.5659
   368.88         524.0886
   369.02         522.5533
   369.16         520.9023
   369.30         519.1342
   369.44         517.2920
   369.58         515.4312
   369.72         513.6098
   369.86         511.8507
   370.00         510.1356
   370.14         508.4376
   370.28         506.7805
   370.42         505.2513
   370.56         503.9307
   370.70         502.8682
   370.84         502.0753
   370.98         501.5019
   371.12         501.0502
   371.26         500.6335
   371.40         500.2056
   371.54         499.7307
   371.68         499.1902
   371.82         498.6043
   371.96         498.0078
   372.10         497.4173
   372.24         496.8369
   372.38         496.2842
   372.52         495.8040
   372.66         495.4830
   372.80         495.4566
   372.94         495.8622
   373.08         496.7597
   373.22         498.1177
   373.36         499.8319
   373.50         501.7049
   373.64         503.4548
   373.78         504.7444
   373.92         505.2591
   374.06         504.7908
   374.20         503.2377
   374.34         500.5994
   374.48         496.9979
   374.62         492.6858
   374.76         488.0420
   374.90         483.5348
   375.04         479.6517
   375.18         476.8057
   375.32         475.2315
   375.46         474.9277
   375.60         475.6404
   375.74         476.8944
   375.88         478.1199
   376.02         478.8030
   376.16         478.6215
   376.30         477.5474
   376.44         475.8280
   376.58         473.8890
   376.72         472.2046
   376.86         471.1918
   377.00         471.1885
   377.14         472.4353
   377.28         475.0572
   377.42         479.0569
   377.56         484.2783
   377.70         490.3842
   377.84         496.8815
   377.98         503.1697
   378.12         508.6075
   378.26         512.5988
   378.40         514.6912
   378.54         514.6743
   378.68         512.6143
   378.82         508.8100
   378.96         503.7219
   379.10         497.8963
   379.24         491.9245
   379.38         486.4089
   379.52         481.9129
   379.66         478.9274
   379.80         477.8205
   379.94         478.7843
   380.08         481.8018
   380.22         486.6301
   380.36         492.8084
   380.50         499.6741
   380.64         506.4427
   380.78         512.3516
   380.92         516.8244
   381.06         519.5898
   381.20         520.6706
   381.34         520.2930
   381.48         518.8054
   381.62         516.5760
   381.76         513.8607
   381.90         510.7335
   382.04         507.0948
   382.18         502.7498
   382.32         497.5373
   382.46         491.4152
   382.60         484.5056
   382.74         477.1138
   382.88         469.6872
   383.02         462.7547
   383.16         456.8882
   383.30         452.6771
   383.44         450.6455
   383.58         451.1330
   383.72         454.1979
   383.86         459.5615
   384.00         466.6547
   384.14         474.7380
   384.28         483.0068
   384.42         490.6888
   384.56         497.1610
   384.70         502.0413
   384.84         505.2336
   384.98         506.8990
   385.12         507.3505
   385.26         506.9461
   385.40         506.0101
   385.54         504.7692
   385.68         503.3571
   385.82         501.8659
   385.96         500.3754
   386.10         498.9534
   386.24         497.6451
   386.38         496.4640
   386.52         495.3728
   386.66         494.2963
   386.80         493.1477
   386.94         491.8127
   387.08         490.1523
   387.22         487.9903
   387.36         485.0812
   387.50         481.1395
   387.64         475.9275
   387.78         469.3722
   387.92         461.6265
   388.06         453.0713
   388.20         444.2923
   388.34         436.0162
   388.48         429.0003
   388.62         423.9074
   388.76         421.2019
   388.90         421.0883
   389.04         423.5111
   389.18         428.1857
   389.32         434.6579
   389.46         442.3637
   389.60         450.6741
   389.74         458.9435
   389.88         466.5471
   390.02         472.9710
   390.16         477.9216
   390.30         481.3562
   390.44         483.4304
   390.58         484.3854
   390.72         484.4719
   390.86         483.9310
   391.00         482.9730
   391.14         481.7440
   391.28         480.3186
   391.42         478.7319
   391.56         477.0307
   391.70         475.2978
   391.84         473.6127
   391.98         471.9989
   392.12         470.4240
   392.26         468.8489
   392.40         467.2666
   392.54         465.7051
   392.68         464.2220
   392.82         462.8965
   392.96         461.8217
   393.10         461.0993
   393.24         460.8274
   393.38         461.0722
   393.52         461.8340
   393.66         463.0224
   393.80         464.4699
   393.94         465.9877
   394.08         467.3980
   394.22         468.5262
   394.36         469.2061
   394.50         469.3008
   394.64         468.7369
   394.78         467.5366
   394.92         465.7918
   395.06         463.5645
   395.20         460.8187
   395.34         457.4273
   395.48         453.1839
   395.62         447.8356
   395.76         441.1726
   395.90         433.1511
   396.04         423.9776
   396.18         414.1072
   396.32         404.1695
   396.46         394.8701
   396.60         386.9095
   396.74         380.9121
   396.88         377.3592
   397.02         376.5179
   397.16         378.3808
   397.30         382.6853
   397.44         388.9553
   397.58         396.5436
   397.72         404.7078
   397.86         412.7168
   398.00         419.9516
   398.14         425.9735
   398.28         430.5739
   398.42         433.7835
   398.56         435.8043
   398.70         436.8914
   398.84         437.2624
   398.98         437.0797
   399.12         436.4755
   399.26         435.5743
   399.40         434.4795
   399.54         433.2410
   399.68         431.8656
   399.82         430.3786
   399.96         428.8452
   400.10         427.3230
   400.24         425.8493
   400.38         424.4515
   400.52         423.1424
   400.66         421.9072
   400.80         420.6918
   400.94         419.4068
   401.08         417.9349
   401.22         416.1407
   401.36         413.9101
   401.50         411.1996
   401.64         408.0589
   401.78         404.6350
   401.92         401.1511
   402.06         397.8663
   402.20         395.0541
   402.34         392.9858
   402.48         391.8767
   402.62         391.8316
   402.76         392.8439
   402.90         394.8060
   403.04         397.5107
   403.18         400.6801
   403.32         404.0046
   403.46         407.1728
   403.60         409.8972
   403.74         411.9534
   403.88         413.2333
   404.02         413.7713
   404.16         413.6974
   404.30         413.1684
   404.44         412.3336
   404.58         411.3176
   404.72         410.2240
   404.86         409.1398
   405.00         408.1284
   405.14         407.2330
   405.28         406.4754
   405.42         405.8338
   405.56         405.2248
   405.70         404.5260
   405.84         403.6160
   405.98         402.3975
   406.12         400.8200
   406.26         398.9048
   406.40         396.7444
   406.54         394.4673
   406.68         392.2098
   406.82         390.1048
   406.96         388.2651
   407.10         386.7798
   407.24         385.7043
   407.38         385.0347
   407.52         384.6923
   407.66         384.5300
   407.80         384.3731
   407.94         384.0568
   408.08         383.4433
   408.22         382.4276
   408.36         380.9200
   408.50         378.8256
   408.64         376.0401
   408.78         372.4455
   408.92         367.9150
   409.06         362.3714
   409.20         355.8787
   409.34         348.6992
   409.48         341.2794
   409.62         334.1671
   409.76         327.9209
   409.90         323.0432
   410.04         319.9285
   410.18         318.8208
   410.32         319.7843
   410.46         322.7027
   410.60         327.2722
   410.74         333.0056
   410.88         339.2984
   411.02         345.5343
   411.16         351.1917
   411.30         355.9071
   411.44         359.4961
   411.58         361.9717
   411.72         363.5383
   411.86         364.5121
   412.00         365.2043
   412.14         365.8425
   412.28         366.5453
   412.42         367.3368
   412.56         368.1794
   412.70         368.9917
   412.84         369.6679
   412.98         370.1009
   413.12         370.1951
   413.26         369.8797
   413.40         369.1328
   413.54         367.9936
   413.68         366.5455
   413.82         364.8898
   413.96         363.1314
   414.10         361.3850
   414.24         359.7715
   414.38         358.3950
   414.52         357.3374
   414.66         356.6598
   414.80         356.3839
   414.94         356.4738
   415.08         356.8324
   415.22         357.3322
   415.36         357.8562
   415.50         358.2991
   415.64         358.5691
   415.78         358.6138
   415.92         358.4386
   416.06         358.0920
   416.20         357.6270
   416.34         357.0901
   416.48         356.5265
   416.62         355.9731
   416.76         355.4622
   416.90         355.0178
   417.04         354.6464
   417.18         354.3282
   417.32         354.0011
   417.46         353.5743
   417.60         352.9748
   417.74         352.1746
   417.88         351.1934
   418.02         350.0783
   418.16         348.8828
   418.30         347.6625
   418.44         346.4518
   418.58         345.2444
   418.72         344.0042
   418.86         342.6912
   419.00         341.2921
   419.14         339.8332
   419.28         338.3732
   419.42         336.9951
   419.56         335.7900
   419.70         334.8311
   419.84         334.1626
   419.98         333.8151
   420.12         333.8242
   420.26         334.2088
   420.40         334.9309
   420.54         335.8947
   420.68         336.9707
   420.82         338.0294
   420.96         338.9563
   421.10         339.6479
   421.24         340.0341
   421.38         340.1139
   421.52         339.9548
   421.66         339.6501
   421.80         339.2785
   421.94         338.8898
   422.08         338.5120
   422.22         338.1588
   422.36         337.8229
   422.50         337.4866
   422.64         337.1397
   422.78         336.7737
   422.92         336.3643
   423.06         335.8779
   423.20         335.3089
   423.34         334.6968
   423.48         334.1004
   423.62         333.5533
   423.76         333.0537
   423.90         332.5963
   424.04         332.1960
   424.18         331.8627
   424.32         331.5783
   424.46         331.3085
   424.60         331.0098
   424.74         330.6369
   424.88         330.1588
   425.02         329.5707
   425.16         328.8923
   425.30         328.1581
   425.44         327.4089
   425.58         326.6867
   425.72         326.0383
   425.86         325.5087
   426.00         325.1168
   426.14         324.8343
   426.28         324.5928
   426.42         324.3224
   426.56         323.9832
   426.70         323.5605
   426.84         323.0516
   426.98         322.4616
   427.12         321.7933
   427.26         321.0466
   427.40         320.2391
   427.54         319.4148
   427.68         318.6233
   427.82         317.9000
   427.96         317.2675
   428.10         316.7385
   428.24         316.3220
   428.38         316.0274
   428.52         315.8554
   428.66         315.7974
   428.80         315.8424
   428.94         315.9790
   429.08         316.1972
   429.22         316.4787
   429.36         316.7869
   429.50         317.0694
   429.64         317.2619
   429.78         317.2998
   429.92         317.1436
   430.06         316.7906
   430.20         316.2641
   430.34         315.5996
   430.48         314.8451
   430.62         314.0622
   430.76         313.3131
   430.90         312.6496
   431.04         312.1063
   431.18         311.6950
   431.32         311.4058
   431.46         311.2176
   431.60         311.1016
   431.74         311.0163
   431.88         310.9015
   432.02         310.6683
   432.16         310.1984
   432.30         309.3465
   432.44         307.9425
   432.58         305.8022
   432.72         302.7530
   432.86         298.6877
   433.00         293.6230
   433.14         287.7320
   433.28         281.3338
   433.42         274.8423
   433.56         268.7134
   433.70         263.4015
   433.84         259.3011
   433.98         256.7039
   434.12         255.7819
   434.26         256.5644
   434.40         258.9271
   434.54         262.6150
   434.68         267.2768
   434.82         272.5026
   434.96         277.8668
   435.10         282.9801
   435.24         287.5295
   435.38         291.3103
   435.52         294.2527
   435.66         296.4048
   435.80         297.8813
   435.94         298.8108
   436.08         299.3094
   436.22         299.4900
   436.36         299.4592
   436.50         299.2958
   436.64         299.0554
   436.78         298.7786
   436.92         298.4897
   437.06         298.1959
   437.20         297.8756
   437.34         297.4691
   437.48         296.8923
   437.62         296.0689
   437.76         294.9601
   437.90         293.5759
   438.04         291.9780
   438.18         290.2782
   438.32         288.6156
   438.46         287.1159
   438.60         285.8679
   438.74         284.9307
   438.88         284.3406
   439.02         284.0941
   439.16         284.1463
   439.30         284.4354
   439.44         284.8880
   439.58         285.4151
   439.72         285.9112
   439.86         286.2655
   440.00         286.3943
   440.14         286.2604
   440.28         285.8785
   440.42         285.2993
   440.56         284.5733
   440.70         283.7360
   440.84         282.8133
   440.98         281.8223
   441.12         280.7613
   441.26         279.6204
   441.40         278.3887
   441.54         277.0448
   441.68         275.5626
   441.82         273.9393
   441.96         272.2017
   442.10         270.3927
   442.24         268.5720
   442.38         266.8198
   442.52         265.2299
   442.66         263.8936
   442.80         262.8853
   442.94         262.2589
   443.08         262.0399
   443.22         262.2218
   443.36         262.7735
   443.50         263.6388
   443.64         264.7296
   443.78         265.9345
   443.92         267.1426
   444.06         268.2619
   444.20         269.2322
   444.34         270.0327
   444.48         270.6729
   444.62         271.1777
   444.76         271.5851
   444.90         271.9416
   445.04         272.2857
   445.18         272.6329
   445.32         272.9727
   445.46         273.2638
   445.60         273.4165
   445.74         273.2891
   445.88         272.7199
   446.02         271.5833
   446.16         269.8403
   446.30         267.5513
   446.44         264.8679
   446.58         262.0105
   446.72         259.2282
   446.86         256.7669
   447.00         254.8432
   447.14         253.6123
   447.28         253.1506
   447.42         253.4548
   447.56         254.4468
   447.70         255.9847
   447.84         257.8765
   447.98         259.9088
   448.12         261.8779
   448.26         263.6081
   448.40         264.9792
   448.54         265.9542
   448.68         266.5767
   448.82         266.9315
   448.96         267.0918
   449.10         267.0974
   449.24         266.9651
   449.38         266.7034
   449.52         266.3168
   449.66         265.8050
   449.80         265.1693
   449.94         264.4212
   450.08         263.5780
   450.22         262.6615
   450.36         261.7001
   450.50         260.7322
   450.64         259.8107
   450.78         258.9895
   450.92         258.2966
   451.06         257.7410
   451.20         257.3393
   451.34         257.1193
   451.48         257.0999
   451.62         257.2646
   451.76         257.5635
   451.90         257.9313
   452.04         258.2898
   452.18         258.5596
   452.32         258.6813
   452.46         258.6140
   452.60         258.3168
   452.74         257.7512
   452.88         256.8913
