# File HD187428
# Wavelength [nm]    Normalized Amplitude
   349.70         27.0907
   349.84         27.1156
   349.98         27.1202
   350.12         27.0888
   350.26         27.0175
   350.40         26.9129
   350.54         26.7875
   350.68         26.6581
   350.82         26.5449
   350.96         26.4674
   351.10         26.4398
   351.24         26.4674
   351.38         26.5449
   351.52         26.6581
   351.66         26.7875
   351.80         26.9129
   351.94         27.0175
   352.08         27.0888
   352.22         27.1202
   352.36         27.1156
   352.50         27.0907
   352.64         27.0668
   352.78         27.0704
   352.92         27.1296
   353.06         27.2636
   353.20         27.4786
   353.34         27.7669
   353.48         28.1114
   353.62         28.4911
   353.76         28.8822
   353.90         29.2590
   354.04         29.5966
   354.18         29.8745
   354.32         30.0821
   354.46         30.2219
   354.60         30.3043
   354.74         30.3409
   354.88         30.3467
   355.02         30.3401
   355.16         30.3366
   355.30         30.3413
   355.44         30.3453
   355.58         30.3282
   355.72         30.2651
   355.86         30.1346
   356.00         29.9237
   356.14         29.6290
   356.28         29.2553
   356.42         28.8124
   356.56         28.3162
   356.70         27.7885
   356.84         27.2554
   356.98         26.7439
   357.12         26.2762
   357.26         25.8627
   357.40         25.4975
   357.54         25.1652
   357.68         24.8482
   357.82         24.5326
   357.96         24.2134
   358.10         23.8992
   358.24         23.6116
   358.38         23.3825
   358.52         23.2495
   358.66         23.2485
   358.80         23.4034
   358.94         23.7203
   359.08         24.1866
   359.22         24.7721
   359.36         25.4294
   359.50         26.0998
   359.64         26.7225
   359.78         27.2413
   359.92         27.6088
   360.06         27.7943
   360.20         27.7918
   360.34         27.6220
   360.48         27.3269
   360.62         26.9608
   360.76         26.5776
   360.90         26.2229
   361.04         25.9318
   361.18         25.7280
   361.32         25.6223
   361.46         25.6169
   361.60         25.7115
   361.74         25.9025
   361.88         26.1755
   362.02         26.5015
   362.16         26.8412
   362.30         27.1534
   362.44         27.4033
   362.58         27.5717
   362.72         27.6569
   362.86         27.6756
   363.00         27.6579
   363.14         27.6351
   363.28         27.6285
   363.42         27.6475
   363.56         27.6952
   363.70         27.7722
   363.84         27.8783
   363.98         28.0106
   364.12         28.1619
   364.26         28.3216
   364.40         28.4768
   364.54         28.6177
   364.68         28.7476
   364.82         28.8884
   364.96         29.0739
   365.10         29.3367
   365.24         29.6964
   365.38         30.1514
   365.52         30.6810
   365.66         31.2484
   365.80         31.8044
   365.94         32.2988
   366.08         32.6940
   366.22         32.9716
   366.36         33.1299
   366.50         33.1782
   366.64         33.1350
   366.78         33.0235
   366.92         32.8669
   367.06         32.6887
   367.20         32.5110
   367.34         32.3534
   367.48         32.2252
   367.62         32.1219
   367.76         32.0335
   367.90         31.9543
   368.04         31.8900
   368.18         31.8599
   368.32         31.8890
   368.46         31.9956
   368.60         32.1866
   368.74         32.4606
   368.88         32.8127
   369.02         33.2327
   369.16         33.7035
   369.30         34.1978
   369.44         34.6754
   369.58         35.0923
   369.72         35.4117
   369.86         35.6064
   370.00         35.6599
   370.14         35.5697
   370.28         35.3587
   370.42         35.0801
   370.56         34.8079
   370.70         34.6187
   370.84         34.5710
   370.98         34.6856
   371.12         34.9412
   371.26         35.2953
   371.40         35.7098
   371.54         36.1571
   371.68         36.6109
   371.82         37.0391
   371.96         37.4079
   372.10         37.6854
   372.24         37.8430
   372.38         37.8592
   372.52         37.7239
   372.66         37.4483
   372.80         37.0702
   372.94         36.6491
   373.08         36.2465
   373.22         35.9076
   373.36         35.6526
   373.50         35.4765
   373.64         35.3546
   373.78         35.2547
   373.92         35.1526
   374.06         35.0419
   374.20         34.9312
   374.34         34.8353
   374.48         34.7682
   374.62         34.7361
   374.76         34.7301
   374.90         34.7344
   375.04         34.7475
   375.18         34.7895
   375.32         34.8953
   375.46         35.0952
   375.60         35.3945
   375.74         35.7646
   375.88         36.1516
   376.02         36.4992
   376.16         36.7710
   376.30         36.9592
   376.44         37.0827
   376.58         37.1898
   376.72         37.3483
   376.86         37.6227
   377.00         38.0533
   377.14         38.6463
   377.28         39.3780
   377.42         40.2101
   377.56         41.1024
   377.70         42.0112
   377.84         42.8859
   377.98         43.6719
   378.12         44.3116
   378.26         44.7472
   378.40         44.9311
   378.54         44.8362
   378.68         44.4655
   378.82         43.8571
   378.96         43.0791
   379.10         42.2266
   379.24         41.4137
   379.38         40.7510
   379.52         40.3243
   379.66         40.1854
   379.80         40.3545
   379.94         40.8271
   380.08         41.5721
   380.22         42.5218
   380.36         43.5806
   380.50         44.6489
   380.64         45.6370
   380.78         46.4608
   380.92         47.0489
   381.06         47.3588
   381.20         47.3833
   381.34         47.1452
   381.48         46.6859
   381.62         46.0528
   381.76         45.2928
   381.90         44.4450
   382.04         43.5324
   382.18         42.5635
   382.32         41.5392
   382.46         40.4610
   382.60         39.3366
   382.74         38.1814
   382.88         37.0274
   383.02         35.9365
   383.16         34.9967
   383.30         34.2966
   383.44         33.9040
   383.58         33.8627
   383.72         34.1872
   383.86         34.8540
   384.00         35.8061
   384.14         36.9695
   384.28         38.2651
   384.42         39.6087
   384.56         40.9082
   384.70         42.0719
   384.84         43.0272
   384.98         43.7394
   385.12         44.2192
   385.26         44.5143
   385.40         44.6875
   385.54         44.7999
   385.68         44.9009
   385.82         45.0173
   385.96         45.1463
   386.10         45.2657
   386.24         45.3514
   386.38         45.3868
   386.52         45.3635
   386.66         45.2795
   386.80         45.1378
   386.94         44.9420
   387.08         44.6941
   387.22         44.3980
   387.36         44.0592
   387.50         43.6808
   387.64         43.2605
   387.78         42.7915
   387.92         42.2708
   388.06         41.7055
   388.20         41.1150
   388.34         40.5320
   388.48         40.0013
   388.62         39.5771
   388.76         39.3174
   388.90         39.2733
   389.04         39.4786
   389.18         39.9358
   389.32         40.6096
   389.46         41.4341
   389.60         42.3294
   389.74         43.2203
   389.88         44.0466
   390.02         44.7647
   390.16         45.3471
   390.30         45.7827
   390.44         46.0763
   390.58         46.2450
   390.72         46.3072
   390.86         46.2731
   391.00         46.1490
   391.14         45.9407
   391.28         45.6496
   391.42         45.2666
   391.56         44.7721
   391.70         44.1300
   391.84         43.2847
   391.98         42.1774
   392.12         40.7677
   392.26         39.0480
   392.40         37.0451
   392.54         34.8174
   392.68         32.4558
   392.82         30.0798
   392.96         27.8312
   393.10         25.8631
   393.24         24.3247
   393.38         23.3438
   393.52         23.0094
   393.66         23.3571
   393.80         24.3584
   393.94         25.9213
   394.08         27.9059
   394.22         30.1465
   394.36         32.4735
   394.50         34.7352
   394.64         36.8138
   394.78         38.6282
   394.92         40.1259
   395.06         41.2724
   395.20         42.0410
   395.34         42.4051
   395.48         42.3356
   395.62         41.8053
   395.76         40.8035
   395.90         39.3532
   396.04         37.5232
   396.18         35.4270
   396.32         33.2166
   396.46         31.0725
   396.60         29.1908
   396.74         27.7641
   396.88         26.9550
   397.02         26.8684
   397.16         27.5355
   397.30         28.9127
   397.44         30.8920
   397.58         33.3147
   397.72         35.9949
   397.86         38.7457
   398.00         41.4005
   398.14         43.8316
   398.28         45.9571
   398.42         47.7359
   398.56         49.1631
   398.70         50.2648
   398.84         51.0925
   398.98         51.7127
   399.12         52.1939
   399.26         52.5913
   399.40         52.9353
   399.54         53.2335
   399.68         53.4866
   399.82         53.7009
   399.96         53.8928
   400.10         54.0846
   400.24         54.2953
   400.38         54.5370
   400.52         54.8163
   400.66         55.1345
   400.80         55.4886
   400.94         55.8675
   401.08         56.2529
   401.22         56.6279
   401.36         56.9834
   401.50         57.3173
   401.64         57.6244
   401.78         57.8865
   401.92         58.0697
   402.06         58.1368
   402.20         58.0723
   402.34         57.8887
   402.48         57.6182
   402.62         57.3068
   402.76         57.0070
   402.90         56.7667
   403.04         56.6208
   403.18         56.5840
   403.32         56.6471
   403.46         56.7833
   403.60         56.9608
   403.74         57.1552
   403.88         57.3523
   404.02         57.5392
   404.16         57.6955
   404.30         57.7894
   404.44         57.7865
   404.58         57.6677
   404.72         57.4468
   404.86         57.1686
   405.00         56.8868
   405.14         56.6402
   405.28         56.4452
   405.42         56.2991
   405.56         56.1886
   405.70         56.1008
   405.84         56.0319
   405.98         55.9864
   406.12         55.9739
   406.26         56.0026
   406.40         56.0627
   406.54         56.1139
   406.68         56.0985
   406.82         55.9725
   406.96         55.7255
   407.10         55.3837
   407.24         54.9926
   407.38         54.5994
   407.52         54.2466
   407.66         53.9722
   407.80         53.8113
   407.94         53.7975
   408.08         53.9568
   408.22         54.2980
   408.36         54.8033
   408.50         55.4215
   408.64         56.0708
   408.78         56.6500
   408.92         57.0466
   409.06         57.1518
   409.20         56.8967
   409.34         56.2841
   409.48         55.3861
   409.62         54.3141
   409.76         53.1854
   409.90         52.1058
   410.04         51.1748
   410.18         50.4877
   410.32         50.1238
   410.46         50.1295
   410.60         50.5054
   410.74         51.2052
   410.88         52.1422
   411.02         53.2030
   411.16         54.2690
   411.30         55.2340
   411.44         56.0167
   411.58         56.5668
   411.72         56.8733
   411.86         56.9645
   412.00         56.8874
   412.14         56.6840
   412.28         56.3895
   412.42         56.0433
   412.56         55.6989
   412.70         55.4223
   412.84         55.2765
   412.98         55.3020
   413.12         55.5035
   413.26         55.8519
   413.40         56.3035
   413.54         56.8157
   413.68         57.3499
   413.82         57.8656
   413.96         58.3214
   414.10         58.6802
   414.24         58.9112
   414.38         58.9949
   414.52         58.9310
   414.66         58.7408
   414.80         58.4659
   414.94         58.1636
   415.08         57.8951
   415.22         57.7138
   415.36         57.6575
   415.50         57.7404
   415.64         57.9534
   415.78         58.2715
   415.92         58.6608
   416.06         59.0742
   416.20         59.4474
   416.34         59.7080
   416.48         59.7944
   416.62         59.6683
   416.76         59.3190
   416.90         58.7650
   417.04         58.0544
   417.18         57.2569
   417.32         56.4526
   417.46         55.7227
   417.60         55.1366
   417.74         54.7447
   417.88         54.5774
   418.02         54.6445
   418.16         54.9345
   418.30         55.4155
   418.44         56.0321
   418.58         56.7049
   418.72         57.3456
   418.86         57.8807
   419.00         58.2656
   419.14         58.4781
   419.28         58.5107
   419.42         58.3735
   419.56         58.0978
   419.70         57.7323
   419.84         57.3364
   419.98         56.9741
   420.12         56.7087
   420.26         56.5884
   420.40         56.6359
   420.54         56.8483
   420.68         57.2007
   420.82         57.6536
   420.96         58.1581
   421.10         58.6572
   421.24         59.0923
   421.38         59.4083
   421.52         59.5584
   421.66         59.5172
   421.80         59.2924
   421.94         58.9282
   422.08         58.4909
   422.22         58.0439
   422.36         57.6338
   422.50         57.2872
   422.64         57.0147
   422.78         56.8151
   422.92         56.6788
   423.06         56.5987
   423.20         56.5774
   423.34         56.6206
   423.48         56.7255
   423.62         56.8732
   423.76         57.0317
   423.90         57.1699
   424.04         57.2724
   424.18         57.3478
   424.32         57.4241
   424.46         57.5301
   424.60         57.6750
   424.74         57.8418
   424.88         57.9983
   425.02         58.1188
   425.16         58.1989
   425.30         58.2581
   425.44         58.3290
   425.58         58.4437
   425.72         58.6226
   425.86         58.8629
   426.00         59.1378
   426.14         59.4061
   426.28         59.6283
   426.42         59.7778
   426.56         59.8481
   426.70         59.8502
   426.84         59.8023
   426.98         59.7204
   427.12         59.6148
   427.26         59.4909
   427.40         59.3516
   427.54         59.2012
   427.68         59.0404
   427.82         58.8577
   427.96         58.6296
   428.10         58.3303
   428.24         57.9462
   428.38         57.4760
   428.52         56.9255
   428.66         56.3066
   428.80         55.6354
   428.94         54.9294
   429.08         54.2072
   429.22         53.4873
   429.36         52.7832
   429.50         52.0998
   429.64         51.4366
   429.78         50.7972
   429.92         50.1979
   430.06         49.6682
   430.20         49.2421
   430.34         48.9514
   430.48         48.8340
   430.62         48.9405
   430.76         49.3165
   430.90         49.9742
   431.04         50.8805
   431.18         51.9683
   431.32         53.1497
   431.46         54.3265
   431.60         55.4162
   431.74         56.3704
   431.88         57.1689
   432.02         57.8072
   432.16         58.2885
   432.30         58.6232
   432.44         58.8276
   432.58         58.9087
   432.72         58.8473
   432.86         58.5998
   433.00         58.1229
   433.14         57.3995
   433.28         56.4486
   433.42         55.3196
   433.56         54.0874
   433.70         52.8515
   433.84         51.7224
   433.98         50.7987
   434.12         50.1600
   434.26         49.8727
   434.40         49.9819
   434.54         50.4972
   434.68         51.3840
   434.82         52.5666
   434.96         53.9452
   435.10         55.4121
   435.24         56.8668
   435.38         58.2328
   435.52         59.4697
   435.66         60.5676
   435.80         61.5307
   435.94         62.3656
   436.08         63.0713
   436.22         63.6331
   436.36         64.0207
   436.50         64.2000
   436.64         64.1580
   436.78         63.9229
   436.92         63.5557
   437.06         63.1211
   437.20         62.6611
   437.34         62.1872
   437.48         61.7009
   437.62         61.2156
   437.76         60.7537
   437.90         60.3333
   438.04         59.9637
   438.18         59.6479
   438.32         59.3867
   438.46         59.1841
   438.60         59.0492
   438.74         58.9855
   438.88         58.9818
   439.02         59.0209
   439.16         59.0947
   439.30         59.2049
   439.44         59.3457
   439.58         59.4946
   439.72         59.6173
   439.86         59.6869
   440.00         59.7030
   440.14         59.6940
   440.28         59.6954
   440.42         59.7233
   440.56         59.7701
   440.70         59.8193
   440.84         59.8605
   440.98         59.8920
   441.12         59.9164
   441.26         59.9365
   441.40         59.9540
   441.54         59.9728
   441.68         60.0020
   441.82         60.0495
   441.96         60.1127
   442.10         60.1752
   442.24         60.2131
   442.38         60.2047
   442.52         60.1452
   442.66         60.0501
   442.80         59.9427
   442.94         59.8374
   443.08         59.7353
   443.22         59.6332
   443.36         59.5366
   443.50         59.4642
   443.64         59.4350
   443.78         59.4567
   443.92         59.5279
   444.06         59.6427
   444.20         59.7876
   444.34         59.9378
   444.48         60.0602
   444.62         60.1236
   444.76         60.1092
   444.90         60.0135
   445.04         59.8447
   445.18         59.6189
   445.32         59.3551
   445.46         59.0649
   445.60         58.7513
   445.74         58.4185
   445.88         58.0859
   446.02         57.7938
   446.16         57.5928
   446.30         57.5256
   446.44         57.6179
   446.58         57.8790
   446.72         58.3021
   446.86         58.8568
   447.00         59.4888
   447.14         60.1392
   447.28         60.7649
   447.42         61.3421
   447.56         61.8555
   447.70         62.2858
   447.84         62.6102
   447.98         62.8103
   448.12         62.8794
   448.26         62.8247
   448.40         62.6684
   448.54         62.4498
   448.68         62.2211
   448.82         62.0313
   448.96         61.9130
   449.10         61.8810
   449.24         61.9441
   449.38         62.1086
   449.52         62.3732
   449.66         62.7318
   449.80         63.1821
   449.94         63.7201
   450.08         64.3267
   450.22         64.9581
   450.36         65.5547
   450.50         66.0611
   450.64         66.4393
   450.78         66.6689
   450.92         66.7390
   451.06         66.6456
   451.20         66.3934
   451.34         65.9964
   451.48         65.4757
   451.62         64.8559
   451.76         64.1651
   451.90         63.4338
   452.04         62.6872
   452.18         61.9413
   452.32         61.2088
   452.46         60.5116
   452.60         59.8848
   452.74         59.3692
   452.88         58.9971
   453.02         58.7878
   453.16         58.7519
   453.30         58.8887
   453.44         59.1811
   453.58         59.5942
   453.72         60.0743
   453.86         60.5577
   454.00         60.9862
   454.14         61.3134
   454.28         61.5009
   454.42         61.5270
   454.56         61.3981
   454.70         61.1475
   454.84         60.8280
   454.98         60.5044
   455.12         60.2418
   455.26         60.0874
   455.40         60.0610
   455.54         60.1588
   455.68         60.3711
   455.82         60.6869
   455.96         61.0819
   456.10         61.5176
   456.24         61.9538
   456.38         62.3598
   456.52         62.7191
   456.66         63.0240
   456.80         63.2667
   456.94         63.4350
