# File HD186293
# Wavelength [nm]    Normalized Amplitude
   349.70         3.8585
   349.84         3.8819
   349.98         3.9146
   350.12         3.9518
   350.26         3.9899
   350.40         4.0264
   350.54         4.0590
   350.68         4.0853
   350.82         4.1038
   350.96         4.1145
   351.10         4.1180
   351.24         4.1145
   351.38         4.1038
   351.52         4.0853
   351.66         4.0590
   351.80         4.0264
   351.94         3.9899
   352.08         3.9518
   352.22         3.9146
   352.36         3.8819
   352.50         3.8585
   352.64         3.8488
   352.78         3.8564
   352.92         3.8824
   353.06         3.9254
   353.20         3.9818
   353.34         4.0456
   353.48         4.1093
   353.62         4.1645
   353.76         4.2048
   353.90         4.2265
   354.04         4.2291
   354.18         4.2140
   354.32         4.1835
   354.46         4.1395
   354.60         4.0834
   354.74         4.0167
   354.88         3.9427
   355.02         3.8659
   355.16         3.7898
   355.30         3.7167
   355.44         3.6473
   355.58         3.5817
   355.72         3.5193
   355.86         3.4586
   356.00         3.3977
   356.14         3.3364
   356.28         3.2763
   356.42         3.2196
   356.56         3.1678
   356.70         3.1210
   356.84         3.0782
   356.98         3.0376
   357.12         2.9962
   357.26         2.9502
   357.40         2.8968
   357.54         2.8348
   357.68         2.7647
   357.82         2.6890
   357.96         2.6136
   358.10         2.5472
   358.24         2.4995
   358.38         2.4804
   358.52         2.4989
   358.66         2.5627
   358.80         2.6763
   358.94         2.8398
   359.08         3.0473
   359.22         3.2865
   359.36         3.5412
   359.50         3.7929
   359.64         4.0233
   359.78         4.2164
   359.92         4.3608
   360.06         4.4513
   360.20         4.4887
   360.34         4.4793
   360.48         4.4338
   360.62         4.3646
   360.76         4.2823
   360.90         4.1955
   361.04         4.1124
   361.18         4.0414
   361.32         3.9903
   361.46         3.9672
   361.60         3.9792
   361.74         4.0311
   361.88         4.1232
   362.02         4.2503
   362.16         4.4021
   362.30         4.5659
   362.44         4.7293
   362.58         4.8831
   362.72         5.0211
   362.86         5.1393
   363.00         5.2362
   363.14         5.3116
   363.28         5.3661
   363.42         5.4009
   363.56         5.4189
   363.70         5.4242
   363.84         5.4202
   363.98         5.4094
   364.12         5.3955
   364.26         5.3827
   364.40         5.3740
   364.54         5.3722
   364.68         5.3820
   364.82         5.4113
   364.96         5.4699
   365.10         5.5656
   365.24         5.7020
   365.38         5.8758
   365.52         6.0765
   365.66         6.2881
   365.80         6.4920
   365.94         6.6697
   366.08         6.8068
   366.22         6.8954
   366.36         6.9350
   366.50         6.9314
   366.64         6.8947
   366.78         6.8358
   366.92         6.7644
   367.06         6.6890
   367.20         6.6170
   367.34         6.5545
   367.48         6.5047
   367.62         6.4658
   367.76         6.4334
   367.90         6.4032
   368.04         6.3739
   368.18         6.3475
   368.32         6.3288
   368.46         6.3234
   368.60         6.3349
   368.74         6.3664
   368.88         6.4214
   369.02         6.5023
   369.16         6.6067
   369.30         6.7266
   369.44         6.8491
   369.58         6.9593
   369.72         7.0431
   369.86         7.0884
   370.00         7.0880
   370.14         7.0419
   370.28         6.9585
   370.42         6.8542
   370.56         6.7489
   370.70         6.6596
   370.84         6.5939
   370.98         6.5489
   371.12         6.5156
   371.26         6.4855
   371.40         6.4546
   371.54         6.4204
   371.68         6.3780
   371.82         6.3192
   371.96         6.2383
   372.10         6.1338
   372.24         6.0066
   372.38         5.8601
   372.52         5.6994
   372.66         5.5316
   372.80         5.3658
   372.94         5.2115
   373.08         5.0748
   373.22         4.9562
   373.36         4.8522
   373.50         4.7583
   373.64         4.6723
   373.78         4.5955
   373.92         4.5317
   374.06         4.4858
   374.20         4.4630
   374.34         4.4674
   374.48         4.5010
   374.62         4.5607
   374.76         4.6371
   374.90         4.7188
   375.04         4.7984
   375.18         4.8727
   375.32         4.9414
   375.46         5.0049
   375.60         5.0611
   375.74         5.1062
   375.88         5.1377
   376.02         5.1583
   376.16         5.1756
   376.30         5.1999
   376.44         5.2423
   376.58         5.3135
   376.72         5.4212
   376.86         5.5670
   377.00         5.7447
   377.14         5.9410
   377.28         6.1408
   377.42         6.3307
   377.56         6.4990
   377.70         6.6342
   377.84         6.7247
   377.98         6.7619
   378.12         6.7425
   378.26         6.6678
   378.40         6.5425
   378.54         6.3745
   378.68         6.1731
   378.82         5.9495
   378.96         5.7181
   379.10         5.4967
   379.24         5.3040
   379.38         5.1562
   379.52         5.0634
   379.66         5.0278
   379.80         5.0442
   379.94         5.1026
   380.08         5.1886
   380.22         5.2854
   380.36         5.3761
   380.50         5.4461
   380.64         5.4841
   380.78         5.4807
   380.92         5.4290
   381.06         5.3266
   381.20         5.1767
   381.34         4.9869
   381.48         4.7682
   381.62         4.5343
   381.76         4.2992
   381.90         4.0748
   382.04         3.8698
   382.18         3.6900
   382.32         3.5396
   382.46         3.4221
   382.60         3.3377
   382.74         3.2823
   382.88         3.2491
   383.02         3.2316
   383.16         3.2267
   383.30         3.2338
   383.44         3.2528
   383.58         3.2836
   383.72         3.3249
   383.86         3.3736
   384.00         3.4260
   384.14         3.4793
   384.28         3.5318
   384.42         3.5807
   384.56         3.6214
   384.70         3.6484
   384.84         3.6576
   384.98         3.6481
   385.12         3.6221
   385.26         3.5835
   385.40         3.5377
   385.54         3.4907
   385.68         3.4484
   385.82         3.4147
   385.96         3.3913
   386.10         3.3777
   386.24         3.3741
   386.38         3.3811
   386.52         3.3998
   386.66         3.4303
   386.80         3.4711
   386.94         3.5190
   387.08         3.5719
   387.22         3.6313
   387.36         3.7012
   387.50         3.7859
   387.64         3.8897
   387.78         4.0159
   387.92         4.1682
   388.06         4.3502
   388.20         4.5645
   388.34         4.8118
   388.48         5.0893
   388.62         5.3915
   388.76         5.7094
   388.90         6.0325
   389.04         6.3480
   389.18         6.6419
   389.32         6.9001
   389.46         7.1116
   389.60         7.2705
   389.74         7.3774
   389.88         7.4379
   390.02         7.4611
   390.16         7.4577
   390.30         7.4393
   390.44         7.4157
   390.58         7.3932
   390.72         7.3731
   390.86         7.3513
   391.00         7.3205
   391.14         7.2727
   391.28         7.2016
   391.42         7.1022
   391.56         6.9685
   391.70         6.7939
   391.84         6.5716
   391.98         6.2979
   392.12         5.9739
   392.26         5.6061
   392.40         5.2060
   392.54         4.7899
   392.68         4.3766
   392.82         3.9867
   392.96         3.6409
   393.10         3.3589
   393.24         3.1580
   393.38         3.0520
   393.52         3.0492
   393.66         3.1519
   393.80         3.3558
   393.94         3.6494
   394.08         4.0135
   394.22         4.4246
   394.36         4.8576
   394.50         5.2895
   394.64         5.7008
   394.78         6.0760
   394.92         6.4016
   395.06         6.6655
   395.20         6.8560
   395.34         6.9617
   395.48         6.9730
   395.62         6.8833
   395.76         6.6917
   395.90         6.4060
   396.04         6.0445
   396.18         5.6348
   396.32         5.2115
   396.46         4.8142
   396.60         4.4825
   396.74         4.2529
   396.88         4.1543
   397.02         4.2035
   397.16         4.4032
   397.30         4.7429
   397.44         5.2022
   397.58         5.7524
   397.72         6.3602
   397.86         6.9912
   398.00         7.6131
   398.14         8.1989
   398.28         8.7294
   398.42         9.1929
   398.56         9.5852
   398.70         9.9092
   398.84         10.1741
   398.98         10.3933
   399.12         10.5806
   399.26         10.7466
   399.40         10.8955
   399.54         11.0267
   399.68         11.1392
   399.82         11.2347
   399.96         11.3194
   400.10         11.4010
   400.24         11.4857
   400.38         11.5781
   400.52         11.6814
   400.66         11.7968
   400.80         11.9244
   400.94         12.0618
   401.08         12.2035
   401.22         12.3437
   401.36         12.4779
   401.50         12.6037
   401.64         12.7184
   401.78         12.8173
   401.92         12.8918
   402.06         12.9323
   402.20         12.9339
   402.34         12.8982
   402.48         12.8333
   402.62         12.7509
   402.76         12.6628
   402.90         12.5787
   403.04         12.5050
   403.18         12.4424
   403.32         12.3849
   403.46         12.3235
   403.60         12.2515
   403.74         12.1700
   403.88         12.0875
   404.02         12.0150
   404.16         11.9601
   404.30         11.9231
   404.44         11.8978
   404.58         11.8758
   404.72         11.8529
   404.86         11.8307
   405.00         11.8131
   405.14         11.8005
   405.28         11.7872
   405.42         11.7639
   405.56         11.7233
   405.70         11.6628
   405.84         11.5854
   405.98         11.4990
   406.12         11.4172
   406.26         11.3569
   406.40         11.3292
   406.54         11.3324
   406.68         11.3548
   406.82         11.3840
   406.96         11.4140
   407.10         11.4463
   407.24         11.4860
   407.38         11.5391
   407.52         11.6108
   407.66         11.7063
   407.80         11.8303
   407.94         11.9879
   408.08         12.1824
   408.22         12.4122
   408.36         12.6683
   408.50         12.9330
   408.64         13.1832
   408.78         13.3950
   408.92         13.5461
   409.06         13.6187
   409.20         13.6058
   409.34         13.5161
   409.48         13.3712
   409.62         13.1970
   409.76         13.0161
   409.90         12.8457
   410.04         12.6999
   410.18         12.5915
   410.32         12.5301
   410.46         12.5193
   410.60         12.5537
   410.74         12.6200
   410.88         12.7007
   411.02         12.7768
   411.16         12.8324
   411.30         12.8573
   411.44         12.8477
   411.58         12.8050
   411.72         12.7352
   411.86         12.6471
   412.00         12.5483
   412.14         12.4424
   412.28         12.3295
   412.42         12.2102
   412.56         12.0890
   412.70         11.9748
   412.84         11.8776
   412.98         11.8033
   413.12         11.7494
   413.26         11.7071
   413.40         11.6673
   413.54         11.6256
   413.68         11.5797
   413.82         11.5278
   413.96         11.4671
   414.10         11.3947
   414.24         11.3082
   414.38         11.2068
   414.52         11.0930
   414.66         10.9737
   414.80         10.8607
   414.94         10.7692
   415.08         10.7138
   415.22         10.7033
   415.36         10.7390
   415.50         10.8142
   415.64         10.9173
   415.78         11.0364
   415.92         11.1621
   416.06         11.2861
   416.20         11.3970
   416.34         11.4804
   416.48         11.5241
   416.62         11.5207
   416.76         11.4684
   416.90         11.3715
   417.04         11.2397
   417.18         11.0895
   417.32         10.9422
   417.46         10.8192
   417.60         10.7367
   417.74         10.7038
   417.88         10.7236
   418.02         10.7948
   418.16         10.9114
   418.30         11.0630
   418.44         11.2336
   418.58         11.4022
   418.72         11.5476
   418.86         11.6539
   419.00         11.7130
   419.14         11.7239
   419.28         11.6910
   419.42         11.6257
   419.56         11.5467
   419.70         11.4763
   419.84         11.4349
   419.98         11.4360
   420.12         11.4834
   420.26         11.5711
   420.40         11.6877
   420.54         11.8232
   420.68         11.9722
   420.82         12.1349
   420.96         12.3141
   421.10         12.5100
   421.24         12.7183
   421.38         12.9274
   421.52         13.1191
   421.66         13.2771
   421.80         13.3946
   421.94         13.4764
   422.08         13.5347
   422.22         13.5801
   422.36         13.6173
   422.50         13.6463
   422.64         13.6665
   422.78         13.6800
   422.92         13.6939
   423.06         13.7218
   423.20         13.7802
   423.34         13.8823
   423.48         14.0304
   423.62         14.2123
   423.76         14.4046
   423.90         14.5816
   424.04         14.7243
   424.18         14.8259
   424.32         14.8910
   424.46         14.9273
   424.60         14.9392
   424.74         14.9245
   424.88         14.8777
   425.02         14.7982
   425.16         14.6962
   425.30         14.5932
   425.44         14.5154
   425.58         14.4857
   425.72         14.5155
   425.86         14.6002
   426.00         14.7190
   426.14         14.8417
   426.28         14.9372
   426.42         14.9837
   426.56         14.9744
   426.70         14.9165
   426.84         14.8239
   426.98         14.7117
   427.12         14.5949
   427.26         14.4878
   427.40         14.4020
   427.54         14.3470
   427.68         14.3289
   427.82         14.3457
   427.96         14.3862
   428.10         14.4321
   428.24         14.4637
   428.38         14.4643
   428.52         14.4217
   428.66         14.3305
   428.80         14.1910
   428.94         14.0076
   429.08         13.7875
   429.22         13.5379
   429.36         13.2625
   429.50         12.9617
   429.64         12.6351
   429.78         12.2859
   429.92         11.9229
   430.06         11.5620
   430.20         11.2272
   430.34         10.9506
   430.48         10.7727
   430.62         10.7373
   430.76         10.8811
   430.90         11.2205
   431.04         11.7444
   431.18         12.4150
   431.32         13.1734
   431.46         13.9522
   431.60         14.6928
   431.74         15.3535
   431.88         15.9088
   432.02         16.3470
   432.16         16.6696
   432.30         16.8924
   432.44         17.0431
   432.58         17.1529
   432.72         17.2457
   432.86         17.3343
   433.00         17.4242
   433.14         17.5153
   433.28         17.6029
   433.42         17.6774
   433.56         17.7283
   433.70         17.7498
   433.84         17.7449
   433.98         17.7222
   434.12         17.6953
   434.26         17.6830
   434.40         17.7023
   434.54         17.7620
   434.68         17.8611
   434.82         17.9898
   434.96         18.1350
   435.10         18.2830
   435.24         18.4233
   435.38         18.5517
   435.52         18.6723
   435.66         18.7940
   435.80         18.9229
   435.94         19.0592
   436.08         19.1944
   436.22         19.3120
   436.36         19.3916
   436.50         19.4145
   436.64         19.3718
   436.78         19.2694
   436.92         19.1229
   437.06         18.9460
   437.20         18.7423
   437.34         18.5074
   437.48         18.2398
   437.62         17.9477
   437.76         17.6450
   437.90         17.3446
   438.04         17.0563
   438.18         16.7893
   438.32         16.5549
   438.46         16.3674
   438.60         16.2424
   438.74         16.1913
   438.88         16.2184
   439.02         16.3215
   439.16         16.4929
   439.30         16.7145
   439.44         16.9556
   439.58         17.1797
   439.72         17.3555
   439.86         17.4674
   440.00         17.5207
   440.14         17.5371
   440.28         17.5403
   440.42         17.5453
   440.56         17.5610
   440.70         17.5964
   440.84         17.6617
   440.98         17.7638
   441.12         17.9022
   441.26         18.0687
   441.40         18.2508
   441.54         18.4349
   441.68         18.6090
   441.82         18.7619
   441.96         18.8841
   442.10         18.9709
   442.24         19.0235
   442.38         19.0457
   442.52         19.0438
   442.66         19.0271
   442.80         19.0053
   442.94         18.9829
   443.08         18.9618
   443.22         18.9457
   443.36         18.9419
   443.50         18.9596
   443.64         19.0055
   443.78         19.0829
   443.92         19.1933
   444.06         19.3354
   444.20         19.5010
   444.34         19.6738
   444.48         19.8324
   444.62         19.9562
   444.76         20.0287
   444.90         20.0386
   445.04         19.9815
   445.18         19.8626
   445.32         19.6953
   445.46         19.4960
   445.60         19.2811
   445.74         19.0689
   445.88         18.8817
   446.02         18.7448
   446.16         18.6813
   446.30         18.7074
   446.44         18.8306
   446.58         19.0506
   446.72         19.3567
   446.86         19.7251
   447.00         20.1225
   447.14         20.5157
   447.28         20.8799
   447.42         21.2018
   447.56         21.4751
   447.70         21.6952
   447.84         21.8575
   447.98         21.9598
   448.12         22.0028
   448.26         21.9882
   448.40         21.9199
   448.54         21.8092
   448.68         21.6757
   448.82         21.5422
   448.96         21.4285
   449.10         21.3499
   449.24         21.3199
   449.38         21.3490
   449.52         21.4436
   449.66         21.6079
   449.80         21.8446
   449.94         22.1499
   450.08         22.5066
   450.22         22.8815
   450.36         23.2349
   450.50         23.5334
   450.64         23.7543
   450.78         23.8854
   450.92         23.9249
   451.06         23.8821
   451.20         23.7742
   451.34         23.6200
   451.48         23.4335
   451.62         23.2223
   451.76         22.9905
   451.90         22.7413
   452.04         22.4752
   452.18         22.1921
   452.32         21.8946
   452.46         21.5918
   452.60         21.3002
   452.74         21.0398
   452.88         20.8292
   453.02         20.6840
   453.16         20.6158
   453.30         20.6288
   453.44         20.7183
   453.58         20.8705
   453.72         21.0621
   453.86         21.2645
   454.00         21.4511
   454.14         21.5998
   454.28         21.6960
   454.42         21.7374
   454.56         21.7367
   454.70         21.7159
   454.84         21.6996
   454.98         21.7102
   455.12         21.7636
   455.26         21.8638
   455.40         22.0013
   455.54         22.1607
   455.68         22.3296
   455.82         22.4995
   455.96         22.6611
   456.10         22.8066
   456.24         22.9318
   456.38         23.0360
   456.52         23.1205
   456.66         23.1861
   456.80         23.2308
   456.94         23.2509
   457.08         23.2457
   457.22         23.2161
   457.36         23.1614
   457.50         23.0815
   457.64         22.9808
   457.78         22.8700
   457.92         22.7622
   458.06         22.6702
   458.20         22.6039
   458.34         22.5665
   458.48         22.5533
   458.62         22.5564
   458.76         22.5687
