# File HD191978
# Wavelength [nm]    Normalized Amplitude
   349.70         409.8341
   349.84         410.6918
   349.98         411.5300
   350.12         412.2804
   350.26         412.8812
   350.40         413.2963
   350.54         413.5391
   350.68         413.6559
   350.82         413.7000
   350.96         413.7151
   351.10         413.7198
   351.24         413.7151
   351.38         413.7000
   351.52         413.6559
   351.66         413.5391
   351.80         413.2963
   351.94         412.8812
   352.08         412.2804
   352.22         411.5300
   352.36         410.6918
   352.50         409.8341
   352.64         408.9907
   352.78         408.1790
   352.92         407.4097
   353.06         406.6540
   353.20         405.8685
   353.34         405.0106
   353.48         404.0512
   353.62         402.9700
   353.76         401.7479
   353.90         400.3725
   354.04         398.8361
   354.18         397.1506
   354.32         395.3735
   354.46         393.5870
   354.60         391.8680
   354.74         390.2827
   354.88         388.8674
   355.02         387.6256
   355.16         386.5448
   355.30         385.5934
   355.44         384.7321
   355.58         383.9302
   355.72         383.1755
   355.86         382.4710
   356.00         381.8014
   356.14         381.1272
   356.28         380.3933
   356.42         379.5265
   356.56         378.4650
   356.70         377.1791
   356.84         375.6703
   356.98         373.9694
   357.12         372.1146
   357.26         370.1297
   357.40         368.0313
   357.54         365.8566
   357.68         363.6764
   357.82         361.5883
   357.96         359.6988
   358.10         358.1245
   358.24         356.9921
   358.38         356.3971
   358.52         356.3727
   358.66         356.8949
   358.80         357.8919
   358.94         359.2215
   359.08         360.6931
   359.22         362.1371
   359.36         363.4183
   359.50         364.4212
   359.64         365.0400
   359.78         365.1983
   359.92         364.8739
   360.06         364.1219
   360.20         363.0909
   360.34         361.9882
   360.48         361.0207
   360.62         360.3399
   360.76         360.0160
   360.90         360.0375
   361.04         360.3218
   361.18         360.7435
   361.32         361.1727
   361.46         361.4856
   361.60         361.5630
   361.74         361.3384
   361.88         360.7976
   362.02         359.9315
   362.16         358.7373
   362.30         357.2483
   362.44         355.5627
   362.58         353.8200
   362.72         352.1821
   362.86         350.8291
   363.00         349.8873
   363.14         349.3613
   363.28         349.1486
   363.42         349.1177
   363.56         349.1853
   363.70         349.3139
   363.84         349.4612
   363.98         349.5765
   364.12         349.6252
   364.26         349.6099
   364.40         349.5756
   364.54         349.5581
   364.68         349.5645
   364.82         349.5918
   364.96         349.6336
   365.10         349.6872
   365.24         349.7360
   365.38         349.7519
   365.52         349.7011
   365.66         349.5425
   365.80         349.2595
   365.94         348.8795
   366.08         348.4591
   366.22         348.0513
   366.36         347.6605
   366.50         347.2581
   366.64         346.8283
   366.78         346.3678
   366.92         345.8747
   367.06         345.3381
   367.20         344.7266
   367.34         344.0214
   367.48         343.2586
   367.62         342.5218
   367.76         341.8999
   367.90         341.4378
   368.04         341.1311
   368.18         340.9414
   368.32         340.8006
   368.46         340.6123
   368.60         340.2913
   368.74         339.8058
   368.88         339.1554
   369.02         338.3402
   369.16         337.3712
   369.30         336.2794
   369.44         335.1122
   369.58         333.9361
   369.72         332.8118
   369.86         331.7659
   370.00         330.8137
   370.14         329.9897
   370.28         329.3266
   370.42         328.8339
   370.56         328.5168
   370.70         328.3850
   370.84         328.4468
   370.98         328.6867
   371.12         329.0514
   371.26         329.4623
   371.40         329.8428
   371.54         330.1397
   371.68         330.3388
   371.82         330.4633
   371.96         330.5335
   372.10         330.5313
   372.24         330.4190
   372.38         330.1647
   372.52         329.7718
   372.66         329.3092
   372.80         328.8872
   372.94         328.6136
   373.08         328.5842
   373.22         328.8673
   373.36         329.4580
   373.50         330.2687
   373.64         331.1461
   373.78         331.8949
   373.92         332.3292
   374.06         332.3112
   374.20         331.7426
   374.34         330.5503
   374.48         328.6999
   374.62         326.2090
   374.76         323.1714
   374.90         319.7941
   375.04         316.3959
   375.18         313.3280
   375.32         310.8833
   375.46         309.2410
   375.60         308.4399
   375.74         308.3615
   375.88         308.7278
   376.02         309.1802
   376.16         309.4278
   376.30         309.3288
   376.44         308.8974
   376.58         308.2876
   376.72         307.7345
   376.86         307.4904
   377.00         307.7769
   377.14         308.7544
   377.28         310.5170
   377.42         313.1112
   377.56         316.5275
   377.70         320.6449
   377.84         325.1796
   377.98         329.7327
   378.12         333.8861
   378.26         337.2402
   378.40         339.4424
   378.54         340.2396
   378.68         339.5356
   378.82         337.4334
   378.96         334.2106
   379.10         330.2425
   379.24         325.9378
   379.38         321.7076
   379.52         317.9627
   379.66         315.0872
   379.80         313.3987
   379.94         313.1116
   380.08         314.3009
   380.22         316.8693
   380.36         320.5371
   380.50         324.8931
   380.64         329.4925
   380.78         333.9138
   380.92         337.7789
   381.06         340.8236
   381.20         342.9561
   381.34         344.2565
   381.48         344.9185
   381.62         345.1380
   381.76         345.0285
   381.90         344.6089
   382.04         343.8179
   382.18         342.5129
   382.32         340.4987
   382.46         337.6044
   382.60         333.7616
   382.74         329.0573
   382.88         323.7267
   383.02         318.1293
   383.16         312.7308
   383.30         308.0396
   383.44         304.5031
   383.58         302.4450
   383.72         302.0365
   383.86         303.2670
   384.00         305.9479
   384.14         309.7408
   384.28         314.2010
   384.42         318.8490
   384.56         323.2436
   384.70         327.0361
   384.84         329.9984
   384.98         332.0456
   385.12         333.2296
   385.26         333.6954
   385.40         333.6145
   385.54         333.1223
   385.68         332.3234
   385.82         331.3069
   385.96         330.1358
   386.10         328.8611
   386.24         327.5516
   386.38         326.2874
   386.52         325.1363
   386.66         324.1421
   386.80         323.3135
   386.94         322.6281
   387.08         322.0335
   387.22         321.4172
   387.36         320.5861
   387.50         319.2870
   387.64         317.2612
   387.78         314.3261
   387.92         310.4372
   388.06         305.7109
   388.20         300.4313
   388.34         295.0193
   388.48         289.9525
   388.62         285.7028
   388.76         282.6957
   388.90         281.2509
   389.04         281.5349
   389.18         283.5461
   389.32         287.1072
   389.46         291.8864
   389.60         297.4558
   389.74         303.3306
   389.88         309.0066
   390.02         314.0307
   390.16         318.0794
   390.30         321.0029
   390.44         322.8307
   390.58         323.7188
   390.72         323.8790
   390.86         323.5170
   391.00         322.7919
   391.14         321.8268
   391.28         320.7375
   391.42         319.6281
   391.56         318.5725
   391.70         317.6103
   391.84         316.7472
   391.98         315.9422
   392.12         315.1142
   392.26         314.1818
   392.40         313.0918
   392.54         311.8397
   392.68         310.4789
   392.82         309.1031
   392.96         307.8178
   393.10         306.7365
   393.24         305.9781
   393.38         305.6411
   393.52         305.7669
   393.66         306.3336
   393.80         307.2711
   393.94         308.4723
   394.08         309.7947
   394.22         311.0633
   394.36         312.1018
   394.50         312.7683
   394.64         312.9681
   394.78         312.6777
   394.92         311.9453
   395.06         310.8316
   395.20         309.3644
   395.34         307.5260
   395.48         305.2472
   395.62         302.4100
   395.76         298.8776
   395.90         294.5521
   396.04         289.4440
   396.18         283.7239
   396.32         277.7108
   396.46         271.8160
   396.60         266.4784
   396.74         262.0992
   396.88         259.0101
   397.02         257.4371
   397.16         257.4725
   397.30         259.0712
   397.44         262.0480
   397.58         266.0878
   397.72         270.7863
   397.86         275.7101
   398.00         280.4435
   398.14         284.6321
   398.28         288.0236
   398.42         290.5138
   398.56         292.1642
   398.70         293.1527
   398.84         293.6694
   398.98         293.8394
   399.12         293.7375
   399.26         293.4206
   399.40         292.9391
   399.54         292.3342
   399.68         291.6202
   399.82         290.8129
   399.96         289.9495
   400.10         289.0767
   400.24         288.2433
   400.38         287.4928
   400.52         286.8627
   400.66         286.3757
   400.80         286.0264
   400.94         285.7766
   401.08         285.5580
   401.22         285.2727
   401.36         284.7816
   401.50         283.9243
   401.64         282.5991
   401.78         280.8142
   401.92         278.6699
   402.06         276.3261
   402.20         273.9747
   402.34         271.8300
   402.48         270.1098
   402.62         268.9839
   402.76         268.5392
   402.90         268.7764
   403.04         269.6164
   403.18         270.9134
   403.32         272.4839
   403.46         274.1419
   403.60         275.7187
   403.74         277.0742
   403.88         278.1162
   404.02         278.8077
   404.16         279.1801
   404.30         279.3236
   404.44         279.3293
   404.58         279.2540
   404.72         279.1331
   404.86         278.9898
   405.00         278.8360
   405.14         278.6743
   405.28         278.5017
   405.42         278.3098
   405.56         278.0824
   405.70         277.7841
   405.84         277.3574
   405.98         276.7520
   406.12         275.9492
   406.26         274.9578
   406.40         273.8037
   406.54         272.5256
   406.68         271.1735
   406.82         269.8152
   406.96         268.5296
   407.10         267.3979
   407.24         266.4926
   407.38         265.8518
   407.52         265.4511
   407.66         265.2028
   407.80         264.9919
   407.94         264.7103
   408.08         264.2677
   408.22         263.5930
   408.36         262.6345
   408.50         261.3503
   408.64         259.6975
   408.78         257.6125
   408.92         254.9979
   409.06         251.7530
   409.20         247.8499
   409.34         243.3980
   409.48         238.6415
   409.62         233.9146
   409.76         229.5789
   409.90         225.9607
   410.04         223.3181
   410.18         221.8302
   410.32         221.5889
   410.46         222.5911
   410.60         224.7246
   410.74         227.7704
   410.88         231.4321
   411.02         235.3694
   411.16         239.2321
   411.30         242.7111
   411.44         245.5971
   411.58         247.8092
   411.72         249.3895
   411.86         250.4770
   412.00         251.2434
   412.14         251.8260
   412.28         252.3111
   412.42         252.7408
   412.56         253.1273
   412.70         253.4693
   412.84         253.7465
   412.98         253.9225
   413.12         253.9642
   413.26         253.8549
   413.40         253.5908
   413.54         253.1692
   413.68         252.5955
   413.82         251.8937
   413.96         251.1023
   414.10         250.2685
   414.24         249.4430
   414.38         248.6710
   414.52         247.9958
   414.66         247.4581
   414.80         247.0901
   414.94         246.9072
   415.08         246.8997
   415.22         247.0438
   415.36         247.3022
   415.50         247.6226
   415.64         247.9582
   415.78         248.2785
   415.92         248.5608
   416.06         248.7862
   416.20         248.9455
   416.34         249.0364
   416.48         249.0464
   416.62         248.9513
   416.76         248.7369
   416.90         248.4010
   417.04         247.9443
   417.18         247.3743
   417.32         246.7036
   417.46         245.9472
   417.60         245.1186
   417.74         244.2326
   417.88         243.3192
   418.02         242.4132
   418.16         241.5441
   418.30         240.7375
   418.44         240.0036
   418.58         239.3293
   418.72         238.6763
   418.86         237.9912
   419.00         237.2274
   419.14         236.3586
   419.28         235.3901
   419.42         234.3587
   419.56         233.3142
   419.70         232.3158
   419.84         231.4336
   419.98         230.7412
   420.12         230.3041
   420.26         230.1554
   420.40         230.2881
   420.54         230.6622
   420.68         231.2014
   420.82         231.8177
   420.96         232.4347
   421.10         232.9823
   421.24         233.4002
   421.38         233.6538
   421.52         233.7486
   421.66         233.7250
   421.80         233.6360
   421.94         233.5294
   422.08         233.4380
   422.22         233.3783
   422.36         233.3619
   422.50         233.3947
   422.64         233.4641
   422.78         233.5369
   422.92         233.5770
   423.06         233.5645
   423.20         233.5012
   423.34         233.4011
   423.48         233.2795
   423.62         233.1380
   423.76         232.9616
   423.90         232.7440
   424.04         232.4986
   424.18         232.2364
   424.32         231.9521
   424.46         231.6306
   424.60         231.2601
   424.74         230.8404
   424.88         230.3808
   425.02         229.8917
   425.16         229.3754
   425.30         228.8325
   425.44         228.2701
   425.58         227.7013
   425.72         227.1470
   425.86         226.6322
   426.00         226.1745
   426.14         225.7785
   426.28         225.4411
   426.42         225.1591
   426.56         224.9304
   426.70         224.7446
   426.84         224.5869
   426.98         224.4551
   427.12         224.3610
   427.26         224.3128
   427.40         224.3047
   427.54         224.3199
   427.68         224.3302
   427.82         224.3050
   427.96         224.2245
   428.10         224.0738
   428.24         223.8564
   428.38         223.6008
   428.52         223.3403
   428.66         223.1022
   428.80         222.9066
   428.94         222.7667
   429.08         222.6878
   429.22         222.6658
   429.36         222.6889
   429.50         222.7387
   429.64         222.7913
   429.78         222.8218
   429.92         222.8002
   430.06         222.6944
   430.20         222.4776
   430.34         222.1279
   430.48         221.6418
   430.62         221.0411
   430.76         220.3672
   430.90         219.6754
   431.04         219.0135
   431.18         218.4135
   431.32         217.8991
   431.46         217.4929
   431.60         217.2065
   431.74         217.0294
   431.88         216.9329
   432.02         216.8809
   432.16         216.8278
   432.30         216.7027
   432.44         216.3961
   432.58         215.7616
   432.72         214.6368
   432.86         212.8702
   433.00         210.3631
   433.14         207.1207
   433.28         203.2744
   433.42         199.0622
   433.56         194.7921
   433.70         190.8054
   433.84         187.4414
   433.98         184.9916
   434.12         183.6607
   434.26         183.5492
   434.40         184.6523
   434.54         186.8657
   434.68         189.9854
   434.82         193.7196
   434.96         197.7289
   435.10         201.6808
   435.24         205.2915
   435.38         208.3573
   435.52         210.7814
   435.66         212.5760
   435.80         213.8270
   435.94         214.6427
   436.08         215.1219
   436.22         215.3522
   436.36         215.4045
   436.50         215.3217
   436.64         215.1249
   436.78         214.8288
   436.92         214.4486
   437.06         213.9947
   437.20         213.4742
   437.34         212.8987
   437.48         212.2860
   437.62         211.6440
   437.76         210.9656
   437.90         210.2498
   438.04         209.5114
   438.18         208.7810
   438.32         208.1041
   438.46         207.5273
   438.60         207.0896
   438.74         206.8227
   438.88         206.7411
   439.02         206.8277
   439.16         207.0465
   439.30         207.3649
   439.44         207.7568
   439.58         208.1913
   439.72         208.6232
   439.86         208.9956
   440.00         209.2493
   440.14         209.3339
   440.28         209.2209
   440.42         208.9170
   440.56         208.4547
   440.70         207.8647
   440.84         207.1732
   440.98         206.4036
   441.12         205.5700
   441.26         204.6874
   441.40         203.7731
   441.54         202.8371
   441.68         201.8875
   441.82         200.9344
   441.96         199.9837
   442.10         199.0369
   442.24         198.0936
   442.38         197.1542
   442.52         196.2341
   442.66         195.3680
   442.80         194.5961
   442.94         193.9522
   443.08         193.4599
   443.22         193.1296
   443.36         192.9591
   443.50         192.9343
   443.64         193.0288
   443.78         193.2108
   443.92         193.4516
   444.06         193.7263
   444.20         194.0134
   444.34         194.2915
   444.48         194.5397
   444.62         194.7421
   444.76         194.8915
   444.90         194.9805
   445.04         194.9970
   445.18         194.9348
   445.32         194.7948
   445.46         194.5765
   445.60         194.2748
   445.74         193.8697
   445.88         193.3150
   446.02         192.5528
   446.16         191.5481
   446.30         190.3202
   446.44         188.9437
   446.58         187.5230
   446.72         186.1666
   446.86         184.9696
   447.00         184.0071
   447.14         183.3391
   447.28         183.0066
   447.42         183.0269
   447.56         183.3922
   447.70         184.0645
   447.84         184.9745
   447.98         186.0269
   448.12         187.1082
   448.26         188.1039
   448.40         188.9168
   448.54         189.4861
   448.68         189.7995
   448.82         189.8866
   448.96         189.7932
   449.10         189.5576
   449.24         189.2118
   449.38         188.7890
   449.52         188.3225
   449.66         187.8477
   449.80         187.3963
   449.94         186.9867
   450.08         186.6209
   450.22         186.2869
   450.36         185.9632
   450.50         185.6355
   450.64         185.3054
   450.78         184.9796
   450.92         184.6606
   451.06         184.3539
   451.20         184.0676
   451.34         183.8114
   451.48         183.6056
   451.62         183.4777
   451.76         183.4469
   451.90         183.5123
   452.04         183.6465
   452.18         183.8053
   452.32         183.9452
   452.46         184.0285
   452.60         184.0217
   452.74         183.8885
   452.88         183.5838
