# File HD190785
# Wavelength [nm]    Normalized Amplitude
   349.70         20.0217
   349.84         19.9196
   349.98         19.8138
   350.12         19.7103
   350.26         19.6160
   350.40         19.5361
   350.54         19.4735
   350.68         19.4288
   350.82         19.3996
   350.96         19.3831
   351.10         19.3777
   351.24         19.3831
   351.38         19.3996
   351.52         19.4288
   351.66         19.4735
   351.80         19.5361
   351.94         19.6160
   352.08         19.7103
   352.22         19.8138
   352.36         19.9196
   352.50         20.0217
   352.64         20.1169
   352.78         20.2046
   352.92         20.2848
   353.06         20.3564
   353.20         20.4198
   353.34         20.4763
   353.48         20.5255
   353.62         20.5657
   353.76         20.5953
   353.90         20.6096
   354.04         20.6003
   354.18         20.5605
   354.32         20.4896
   354.46         20.3920
   354.60         20.2734
   354.74         20.1412
   354.88         20.0048
   355.02         19.8733
   355.16         19.7545
   355.30         19.6529
   355.44         19.5674
   355.58         19.4924
   355.72         19.4221
   355.86         19.3513
   356.00         19.2743
   356.14         19.1865
   356.28         19.0879
   356.42         18.9812
   356.56         18.8699
   356.70         18.7590
   356.84         18.6555
   356.98         18.5662
   357.12         18.4963
   357.26         18.4497
   357.40         18.4287
   357.54         18.4322
   357.68         18.4552
   357.82         18.4909
   357.96         18.5333
   358.10         18.5777
   358.24         18.6208
   358.38         18.6612
   358.52         18.6965
   358.66         18.7226
   358.80         18.7357
   358.94         18.7338
   359.08         18.7177
   359.22         18.6890
   359.36         18.6488
   359.50         18.5976
   359.64         18.5360
   359.78         18.4663
   359.92         18.3911
   360.06         18.3117
   360.20         18.2299
   360.34         18.1487
   360.48         18.0713
   360.62         18.0005
   360.76         17.9385
   360.90         17.8887
   361.04         17.8522
   361.18         17.8263
   361.32         17.8077
   361.46         17.7963
   361.60         17.7934
   361.74         17.7976
   361.88         17.8033
   362.02         17.8053
   362.16         17.8029
   362.30         17.8008
   362.44         17.8071
   362.58         17.8289
   362.72         17.8696
   362.86         17.9285
   363.00         18.0016
   363.14         18.0834
   363.28         18.1691
   363.42         18.2531
   363.56         18.3276
   363.70         18.3848
   363.84         18.4212
   363.98         18.4384
   364.12         18.4408
   364.26         18.4335
   364.40         18.4228
   364.54         18.4174
   364.68         18.4282
   364.82         18.4657
   364.96         18.5354
   365.10         18.6364
   365.24         18.7618
   365.38         18.9012
   365.52         19.0430
   365.66         19.1751
   365.80         19.2877
   365.94         19.3744
   366.08         19.4311
   366.22         19.4567
   366.36         19.4528
   366.50         19.4214
   366.64         19.3644
   366.78         19.2842
   366.92         19.1839
   367.06         19.0672
   367.20         18.9388
   367.34         18.8054
   367.48         18.6750
   367.62         18.5557
   367.76         18.4544
   367.90         18.3768
   368.04         18.3257
   368.18         18.3008
   368.32         18.3000
   368.46         18.3210
   368.60         18.3622
   368.74         18.4241
   368.88         18.5078
   369.02         18.6122
   369.16         18.7327
   369.30         18.8616
   369.44         18.9909
   369.58         19.1163
   369.72         19.2366
   369.86         19.3516
   370.00         19.4614
   370.14         19.5657
   370.28         19.6650
   370.42         19.7661
   370.56         19.8835
   370.70         20.0309
   370.84         20.2124
   370.98         20.4198
   371.12         20.6383
   371.26         20.8562
   371.40         21.0711
   371.54         21.2870
   371.68         21.5092
   371.82         21.7423
   371.96         21.9858
   372.10         22.2319
   372.24         22.4636
   372.38         22.6573
   372.52         22.7955
   372.66         22.8804
   372.80         22.9352
   372.94         22.9980
   373.08         23.1097
   373.22         23.2990
   373.36         23.5722
   373.50         23.9168
   373.64         24.3077
   373.78         24.7100
   373.92         25.0835
   374.06         25.3901
   374.20         25.5999
   374.34         25.6986
   374.48         25.6903
   374.62         25.5994
   374.76         25.4721
   374.90         25.3709
   375.04         25.3661
   375.18         25.5206
   375.32         25.8705
   375.46         26.4092
   375.60         27.0831
   375.74         27.7977
   375.88         28.4368
   376.02         28.8887
   376.16         29.0752
   376.30         28.9692
   376.44         28.6050
   376.58         28.0785
   376.72         27.5287
   376.86         27.1086
   377.00         26.9577
   377.14         27.1832
   377.28         27.8475
   377.42         28.9615
   377.56         30.4803
   377.70         32.3076
   377.84         34.3051
   377.98         36.3061
   378.12         38.1301
   378.26         39.6016
   378.40         40.5745
   378.54         40.9527
   378.68         40.7043
   378.82         39.8643
   378.96         38.5321
   379.10         36.8596
   379.24         35.0331
   379.38         33.2524
   379.52         31.7120
   379.66         30.5821
   379.80         29.9910
   379.94         30.0154
   380.08         30.6763
   380.22         31.9383
   380.36         33.7144
   380.50         35.8791
   380.64         38.2809
   380.78         40.7580
   380.92         43.1540
   381.06         45.3327
   381.20         47.1895
   381.34         48.6539
   381.48         49.6835
   381.62         50.2575
   381.76         50.3704
   381.90         50.0239
   382.04         49.2250
   382.18         47.9870
   382.32         46.3351
   382.46         44.3157
   382.60         42.0056
   382.74         39.5118
   382.88         36.9671
   383.02         34.5242
   383.16         32.3440
   383.30         30.5798
   383.44         29.3609
   383.58         28.7810
   383.72         28.8897
   383.86         29.6871
   384.00         31.1225
   384.14         33.0971
   384.28         35.4781
   384.42         38.1152
   384.56         40.8557
   384.70         43.5595
   384.84         46.1104
   384.98         48.4227
   385.12         50.4458
   385.26         52.1640
   385.40         53.5890
   385.54         54.7510
   385.68         55.6906
   385.82         56.4473
   385.96         57.0517
   386.10         57.5212
   386.24         57.8589
   386.38         58.0548
   386.52         58.0878
   386.66         57.9281
   386.80         57.5416
   386.94         56.8990
   387.08         55.9784
   387.22         54.7637
   387.36         53.2424
   387.50         51.4068
   387.64         49.2612
   387.78         46.8345
   387.92         44.1884
   388.06         41.4174
   388.20         38.6430
   388.34         36.0032
   388.48         33.6396
   388.62         31.6861
   388.76         30.2555
   388.90         29.4288
   389.04         29.2516
   389.18         29.7317
   389.32         30.8367
   389.46         32.4966
   389.60         34.6116
   389.74         37.0605
   389.88         39.7098
   390.02         42.4221
   390.16         45.0696
   390.30         47.5516
   390.44         49.8057
   390.58         51.8042
   390.72         53.5431
   390.86         55.0339
   391.00         56.2969
   391.14         57.3580
   391.28         58.2437
   391.42         58.9767
   391.56         59.5756
   391.70         60.0528
   391.84         60.4062
   391.98         60.6104
   392.12         60.6174
   392.26         60.3767
   392.40         59.8608
   392.54         59.0841
   392.68         58.1085
   392.82         57.0342
   392.96         55.9799
   393.10         55.0634
   393.24         54.3846
   393.38         54.0127
   393.52         53.9763
   393.66         54.2630
   393.80         54.8237
   393.94         55.5764
   394.08         56.4162
   394.22         57.2259
   394.36         57.8879
   394.50         58.2969
   394.64         58.3728
   394.78         58.0755
   394.92         57.4133
   395.06         56.4288
   395.20         55.1723
   395.34         53.6793
   395.48         51.9607
   395.62         50.0115
   395.76         47.8253
   395.90         45.4085
   396.04         42.7922
   396.18         40.0437
   396.32         37.2698
   396.46         34.6050
   396.60         32.1954
   396.74         30.1844
   396.88         28.6979
   397.02         27.8310
   397.16         27.6411
   397.30         28.1425
   397.44         29.3003
   397.58         31.0340
   397.72         33.2270
   397.86         35.7384
   398.00         38.4162
   398.14         41.1143
   398.28         43.7101
   398.42         46.1152
   398.56         48.2753
   398.70         50.1704
   398.84         51.8070
   398.98         53.2060
   399.12         54.3936
   399.26         55.3968
   399.40         56.2403
   399.54         56.9481
   399.68         57.5453
   399.82         58.0561
   399.96         58.4980
   400.10         58.8798
   400.24         59.2063
   400.38         59.4840
   400.52         59.7223
   400.66         59.9306
   400.80         60.1147
   400.94         60.2786
   401.08         60.4200
   401.22         60.5331
   401.36         60.6149
   401.50         60.6637
   401.64         60.6779
   401.78         60.6582
   401.92         60.6095
   402.06         60.5402
   402.20         60.4618
   402.34         60.3863
   402.48         60.3224
   402.62         60.2743
   402.76         60.2442
   402.90         60.2366
   403.04         60.2561
   403.18         60.2996
   403.32         60.3544
   403.46         60.4035
   403.60         60.4324
   403.74         60.4313
   403.88         60.3971
   404.02         60.3316
   404.16         60.2388
   404.30         60.1236
   404.44         59.9921
   404.58         59.8518
   404.72         59.7102
   404.86         59.5738
   405.00         59.4477
   405.14         59.3333
   405.28         59.2274
   405.42         59.1233
   405.56         59.0154
   405.70         58.8970
   405.84         58.7589
   405.98         58.5939
   406.12         58.3983
   406.26         58.1712
   406.40         57.9133
   406.54         57.6255
   406.68         57.3083
   406.82         56.9624
   406.96         56.5908
   407.10         56.1988
   407.24         55.7894
   407.38         55.3610
   407.52         54.9056
   407.66         54.4098
   407.80         53.8559
   407.94         53.2224
   408.08         52.4864
   408.22         51.6267
   408.36         50.6203
   408.50         49.4417
   408.64         48.0677
   408.78         46.4816
   408.92         44.6763
   409.06         42.6590
   409.20         40.4574
   409.34         38.1269
   409.48         35.7528
   409.62         33.4438
   409.76         31.3189
   409.90         29.4962
   410.04         28.0849
   410.18         27.1755
   410.32         26.8288
   410.46         27.0691
   410.60         27.8799
   410.74         29.2080
   410.88         30.9697
   411.02         33.0548
   411.16         35.3366
   411.30         37.6879
   411.44         39.9963
   411.58         42.1728
   411.72         44.1525
   411.86         45.8967
   412.00         47.3919
   412.14         48.6409
   412.28         49.6586
   412.42         50.4700
   412.56         51.1101
   412.70         51.6225
   412.84         52.0500
   412.98         52.4267
   413.12         52.7763
   413.26         53.1135
   413.40         53.4458
   413.54         53.7738
   413.68         54.0917
   413.82         54.3902
   413.96         54.6587
   414.10         54.8855
   414.24         55.0601
   414.38         55.1769
   414.52         55.2400
   414.66         55.2607
   414.80         55.2531
   414.94         55.2327
   415.08         55.2130
   415.22         55.2052
   415.36         55.2151
   415.50         55.2407
   415.64         55.2760
   415.78         55.3160
   415.92         55.3572
   416.06         55.3939
   416.20         55.4161
   416.34         55.4110
   416.48         55.3678
   416.62         55.2814
   416.76         55.1528
   416.90         54.9886
   417.04         54.7981
   417.18         54.5921
   417.32         54.3818
   417.46         54.1815
   417.60         54.0067
   417.74         53.8686
   417.88         53.7765
   418.02         53.7337
   418.16         53.7365
   418.30         53.7779
   418.44         53.8454
   418.58         53.9212
   418.72         53.9861
   418.86         54.0240
   419.00         54.0278
   419.14         53.9969
   419.28         53.9343
   419.42         53.8468
   419.56         53.7452
   419.70         53.6443
   419.84         53.5592
   419.98         53.5021
   420.12         53.4817
   420.26         53.4989
   420.40         53.5464
   420.54         53.6117
   420.68         53.6804
   420.82         53.7413
   420.96         53.7874
   421.10         53.8120
   421.24         53.8102
   421.38         53.7788
   421.52         53.7150
   421.66         53.6182
   421.80         53.4913
   421.94         53.3406
   422.08         53.1746
   422.22         52.9998
   422.36         52.8206
   422.50         52.6428
   422.64         52.4769
   422.78         52.3353
   422.92         52.2280
   423.06         52.1638
   423.20         52.1496
   423.34         52.1861
   423.48         52.2653
   423.62         52.3690
   423.76         52.4727
   423.90         52.5555
   424.04         52.6039
   424.18         52.6113
   424.32         52.5785
   424.46         52.5121
   424.60         52.4223
   424.74         52.3190
   424.88         52.2111
   425.02         52.1089
   425.16         52.0235
   425.30         51.9632
   425.44         51.9296
   425.58         51.9193
   425.72         51.9266
   425.86         51.9395
   426.00         51.9422
   426.14         51.9205
   426.28         51.8654
   426.42         51.7764
   426.56         51.6609
   426.70         51.5281
   426.84         51.3871
   426.98         51.2475
   427.12         51.1180
   427.26         51.0049
   427.40         50.9119
   427.54         50.8408
   427.68         50.7896
   427.82         50.7539
   427.96         50.7280
   428.10         50.7038
   428.24         50.6739
   428.38         50.6327
   428.52         50.5751
   428.66         50.4996
   428.80         50.4071
   428.94         50.2986
   429.08         50.1742
   429.22         50.0308
   429.36         49.8652
   429.50         49.6755
   429.64         49.4601
   429.78         49.2194
   429.92         48.9571
   430.06         48.6803
   430.20         48.3968
   430.34         48.1119
   430.48         47.8317
   430.62         47.5636
   430.76         47.3142
   430.90         47.0856
   431.04         46.8707
   431.18         46.6526
   431.32         46.4103
   431.46         46.1226
   431.60         45.7704
   431.74         45.3379
   431.88         44.8116
   432.02         44.1814
   432.16         43.4368
   432.30         42.5660
   432.44         41.5568
   432.58         40.3976
   432.72         39.0787
   432.86         37.5953
   433.00         35.9539
   433.14         34.1823
   433.28         32.3328
   433.42         30.4791
   433.56         28.7078
   433.70         27.1120
   433.84         25.7843
   433.98         24.8071
   434.12         24.2419
   434.26         24.1251
   434.40         24.4645
   434.54         25.2391
   434.68         26.4004
   434.82         27.8768
   434.96         29.5812
   435.10         31.4193
   435.24         33.2982
   435.38         35.1365
   435.52         36.8723
   435.66         38.4664
   435.80         39.9009
   435.94         41.1733
   436.08         42.2901
   436.22         43.2616
   436.36         44.0989
   436.50         44.8131
   436.64         45.4181
   436.78         45.9327
   436.92         46.3764
   437.06         46.7628
   437.20         47.0992
   437.34         47.3888
   437.48         47.6328
   437.62         47.8310
   437.76         47.9823
   437.90         48.0874
   438.04         48.1477
   438.18         48.1659
   438.32         48.1484
   438.46         48.1033
   438.60         48.0396
   438.74         47.9668
   438.88         47.8921
   439.02         47.8201
   439.16         47.7561
   439.30         47.7066
   439.44         47.6758
   439.58         47.6631
   439.72         47.6642
   439.86         47.6749
   440.00         47.6911
   440.14         47.7104
   440.28         47.7297
   440.42         47.7429
   440.56         47.7417
   440.70         47.7175
   440.84         47.6683
   440.98         47.5991
   441.12         47.5186
   441.26         47.4377
   441.40         47.3687
   441.54         47.3224
   441.68         47.3071
   441.82         47.3269
   441.96         47.3794
   442.10         47.4554
   442.24         47.5416
   442.38         47.6221
   442.52         47.6835
   442.66         47.7188
   442.80         47.7254
   442.94         47.6996
   443.08         47.6387
   443.22         47.5454
   443.36         47.4286
   443.50         47.3010
   443.64         47.1740
   443.78         47.0562
   443.92         46.9538
   444.06         46.8701
   444.20         46.8046
   444.34         46.7552
   444.48         46.7212
   444.62         46.7023
   444.76         46.6970
   444.90         46.7025
   445.04         46.7149
   445.18         46.7297
   445.32         46.7423
   445.46         46.7438
   445.60         46.7228
   445.74         46.6718
   445.88         46.5905
   446.02         46.4850
   446.16         46.3632
   446.30         46.2332
   446.44         46.1032
   446.58         45.9791
   446.72         45.8628
   446.86         45.7510
   447.00         45.6356
   447.14         45.5089
   447.28         45.3678
   447.42         45.2151
   447.56         45.0589
   447.70         44.9075
   447.84         44.7674
   447.98         44.6432
   448.12         44.5395
   448.26         44.4618
   448.40         44.4181
   448.54         44.4152
   448.68         44.4544
   448.82         44.5289
   448.96         44.6271
   449.10         44.7355
   449.24         44.8416
   449.38         44.9355
   449.52         45.0108
   449.66         45.0670
   449.80         45.1105
   449.94         45.1498
   450.08         45.1882
   450.22         45.2212
   450.36         45.2376
   450.50         45.2270
   450.64         45.1862
   450.78         45.1158
   450.92         45.0157
   451.06         44.8868
   451.20         44.7334
   451.34         44.5612
   451.48         44.3783
   451.62         44.1965
   451.76         44.0289
   451.90         43.8858
   452.04         43.7725
   452.18         43.6899
   452.32         43.6364
   452.46         43.6090
   452.60         43.6031
   452.74         43.6122
   452.88         43.6302
   453.02         43.6516
   453.16         43.6755
   453.30         43.7037
   453.44         43.7340
   453.58         43.7600
   453.72         43.7728
   453.86         43.7616
   454.00         43.7167
   454.14         43.6324
   454.28         43.5083
   454.42         43.3484
   454.56         43.1613
   454.70         42.9601
   454.84         42.7612
   454.98         42.5814
   455.12         42.4368
   455.26         42.3400
   455.40         42.2978
   455.54         42.3110
   455.68         42.3756
   455.82         42.4847
   455.96         42.6264
   456.10         42.7829
   456.24         42.9358
   456.38         43.0703
   456.52         43.1779
   456.66         43.2570
   456.80         43.3084
   456.94         43.3339
