# File HD192832
# Wavelength [nm]    Normalized Amplitude
   349.70         673.2680
   349.84         674.5998
   349.98         676.0429
   350.12         677.5563
   350.26         679.1637
   350.40         680.8557
   350.54         682.4960
   350.68         683.8809
   350.82         684.8865
   350.96         685.4888
   351.10         685.6895
   351.24         685.4888
   351.38         684.8865
   351.52         683.8809
   351.66         682.4960
   351.80         680.8557
   351.94         679.1637
   352.08         677.5563
   352.22         676.0429
   352.36         674.5998
   352.50         673.2680
   352.64         672.1647
   352.78         671.4193
   352.92         671.1156
   353.06         671.2971
   353.20         671.9936
   353.34         673.2335
   353.48         674.9798
   353.62         677.0284
   353.76         679.0033
   353.90         680.4663
   354.04         681.0397
   354.18         680.4884
   354.32         678.7741
   354.46         676.0047
   354.60         672.3567
   354.74         668.0995
   354.88         663.6432
   355.02         659.5051
   355.16         656.1538
   355.30         653.8388
   355.44         652.5651
   355.58         652.2011
   355.72         652.5698
   355.86         653.4288
   356.00         654.4173
   356.14         655.1115
   356.28         655.1751
   356.42         654.4820
   356.56         653.1079
   356.70         651.2238
   356.84         649.0031
   356.98         646.5587
   357.12         643.9489
   357.26         641.2879
   357.40         638.7365
   357.54         636.4391
   357.68         634.5215
   357.82         633.0615
   357.96         632.0989
   358.10         631.6998
   358.24         631.9841
   358.38         633.0818
   358.52         635.0145
   358.66         637.6046
   358.80         640.5657
   358.94         643.6334
   359.08         646.6063
   359.22         649.2860
   359.36         651.4002
   359.50         652.6481
   359.64         652.8217
   359.78         651.9377
   359.92         650.1932
   360.06         647.7962
   360.20         644.9249
   360.34         641.7080
   360.48         638.2261
   360.62         634.5947
   360.76         631.0065
   360.90         627.6822
   361.04         624.8199
   361.18         622.5814
   361.32         621.0779
   361.46         620.4028
   361.60         620.6436
   361.74         621.8166
   361.88         623.8047
   362.02         626.3603
   362.16         629.1911
   362.30         632.0145
   362.44         634.5468
   362.58         636.4859
   362.72         637.5444
   362.86         637.5282
   363.00         636.4269
   363.14         634.4466
   363.28         631.9316
   363.42         629.2349
   363.56         626.6296
   363.70         624.3228
   363.84         622.4670
   363.98         621.0879
   364.12         620.1224
   364.26         619.5223
   364.40         619.2219
   364.54         619.1179
   364.68         619.1475
   364.82         619.3410
   364.96         619.8043
   365.10         620.6774
   365.24         622.0754
   365.38         624.0198
   365.52         626.4451
   365.66         629.2385
   365.80         632.1594
   365.94         634.8010
   366.08         636.7167
   366.22         637.5691
   366.36         637.1890
   366.50         635.5540
   366.64         632.8390
   366.78         629.4298
   366.92         625.8148
   367.06         622.4485
   367.20         619.6858
   367.34         617.8211
   367.48         617.0757
   367.62         617.5075
   367.76         618.9713
   367.90         621.1290
   368.04         623.5197
   368.18         625.7155
   368.32         627.4102
   368.46         628.4136
   368.60         628.6478
   368.74         628.1904
   368.88         627.2836
   369.02         626.2181
   369.16         625.2463
   369.30         624.6067
   369.44         624.4809
   369.58         624.9819
   369.72         626.2320
   369.86         628.3637
   370.00         631.4152
   370.14         635.2218
   370.28         639.4487
   370.42         643.8047
   370.56         648.2018
   370.70         652.7120
   370.84         657.3802
   370.98         662.0028
   371.12         666.1675
   371.26         669.5234
   371.40         672.0232
   371.54         673.9408
   371.68         675.6755
   371.82         677.6264
   371.96         680.1303
   372.10         683.2660
   372.24         686.7007
   372.38         689.8321
   372.52         692.0659
   372.66         693.0476
   372.80         692.8307
   372.94         691.8515
   373.08         690.7375
   373.22         690.0748
   373.36         690.2177
   373.50         691.2239
   373.64         692.9054
   373.78         694.9462
   373.92         696.9611
   374.06         698.5354
   374.20         699.3024
   374.34         698.9552
   374.48         697.2696
   374.62         694.2050
   374.76         690.0260
   374.90         685.4520
   375.04         681.6655
   375.18         679.9507
   375.32         681.2001
   375.46         685.6379
   375.60         692.7657
   375.74         701.4292
   375.88         709.9743
   376.02         716.6105
   376.16         719.9346
   376.30         719.3061
   376.44         714.9942
   376.58         708.1077
   376.72         700.3055
   376.86         693.3634
   377.00         688.7529
   377.14         687.4348
   377.28         689.8672
   377.42         696.0953
   377.56         705.7794
   377.70         718.1562
   377.84         732.0889
   377.98         746.2088
   378.12         759.0531
   378.26         769.2332
   378.40         775.6220
   378.54         777.5458
   378.68         774.9750
   378.82         768.5298
   378.96         759.2464
   379.10         748.2785
   379.24         736.7202
   379.38         725.5596
   379.52         715.6831
   379.66         707.9470
   379.80         703.2031
   379.94         702.1510
   380.08         705.1479
   380.22         712.0705
   380.36         722.2816
   380.50         734.7050
   380.64         747.9088
   380.78         760.3323
   380.92         770.6814
   381.06         778.2131
   381.20         782.8131
   381.34         784.8589
   381.48         784.9779
   381.62         783.8517
   381.76         782.0248
   381.90         779.7948
   382.04         777.1686
   382.18         773.8391
   382.32         769.2948
   382.46         763.0429
   382.60         754.8163
   382.74         744.6963
   382.88         733.1345
   383.02         720.8916
   383.16         708.9732
   383.30         698.5667
   383.44         690.9058
   383.58         687.0329
   383.72         687.5349
   383.86         692.3949
   384.00         701.0096
   384.14         712.3182
   384.28         724.9775
   384.42         737.5427
   384.56         748.6737
   384.70         757.3639
   384.84         763.0994
   384.98         765.8852
   385.12         766.1477
   385.26         764.4984
   385.40         761.5080
   385.54         757.6727
   385.68         753.4244
   385.82         749.1176
   385.96         745.0059
   386.10         741.2382
   386.24         737.9365
   386.38         735.2612
   386.52         733.4061
   386.66         732.5050
   386.80         732.5595
   386.94         733.4865
   387.08         735.1140
   387.22         737.0734
   387.36         738.6723
   387.50         738.8995
   387.64         736.6671
   387.78         731.1707
   387.92         722.1778
   388.06         710.1035
   388.20         695.9114
   388.34         680.9177
   388.48         666.5928
   388.62         654.3783
   388.76         645.5065
   388.90         640.8661
   389.04         640.9079
   389.18         645.5697
   389.32         654.2995
   389.46         666.1886
   389.60         680.0599
   389.74         694.5586
   389.88         708.3531
   390.02         720.3254
   390.16         729.7752
   390.30         736.5589
   390.44         740.9556
   390.58         743.3952
   390.72         744.2617
   390.86         743.8225
   391.00         742.2429
   391.14         739.6472
   391.28         736.1502
   391.42         731.8464
   391.56         726.8438
   391.70         721.3171
   391.84         715.4613
   391.98         709.3962
   392.12         703.1251
   392.26         696.6166
   392.40         690.0069
   392.54         683.6175
   392.68         677.7964
   392.82         672.8578
   392.96         669.0889
   393.10         666.7140
   393.24         665.9003
   393.38         666.8023
   393.52         669.5154
   393.66         673.9868
   393.80         679.9440
   393.94         686.8867
   394.08         694.1902
   394.22         701.2345
   394.36         707.4581
   394.50         712.3342
   394.64         715.4242
   394.78         716.5422
   394.92         715.8232
   395.06         713.5907
   395.20         710.0929
   395.34         705.3871
   395.48         699.3564
   395.62         691.7142
   395.76         682.0918
   395.90         670.2682
   396.04         656.4034
   396.18         641.0897
   396.32         625.2350
   396.46         609.8918
   396.60         596.1469
   396.74         585.0565
   396.88         577.5187
   397.02         574.1198
   397.16         575.0599
   397.30         580.1688
   397.44         588.9403
   397.58         600.5392
   397.72         613.8334
   397.86         627.5143
   398.00         640.3033
   398.14         651.1509
   398.28         659.3861
   398.42         664.8304
   398.56         667.8074
   398.70         668.9351
   398.84         668.8260
   398.98         667.9500
   399.12         666.6478
   399.26         665.1650
   399.40         663.6887
   399.54         662.2939
   399.68         660.9131
   399.82         659.4473
   399.96         657.8550
   400.10         656.1387
   400.24         654.3123
   400.38         652.4246
   400.52         650.5971
   400.66         648.9984
   400.80         647.7836
   400.94         647.0650
   401.08         646.8799
   401.22         647.1106
   401.36         647.4222
   401.50         647.3780
   401.64         646.6231
   401.78         644.9764
   401.92         642.4425
   402.06         639.1869
   402.20         635.4744
   402.34         631.6632
   402.48         628.2236
   402.62         625.6377
   402.76         624.2461
   402.90         624.1892
   403.04         625.4228
   403.18         627.7359
   403.32         630.7749
   403.46         634.0998
   403.60         637.2529
   403.74         639.8482
   403.88         641.6741
   404.02         642.7270
   404.16         643.1804
   404.30         643.2861
   404.44         643.2655
   404.58         643.2565
   404.72         643.3126
   404.86         643.4301
   405.00         643.5714
   405.14         643.6775
   405.28         643.6755
   405.42         643.5036
   405.56         643.1634
   405.70         642.7280
   405.84         642.2849
   405.98         641.8879
   406.12         641.5358
   406.26         641.1854
   406.40         640.7757
   406.54         640.2201
   406.68         639.3889
   406.82         638.1514
   406.96         636.4309
   407.10         634.2377
   407.24         631.6667
   407.38         628.8565
   407.52         625.9624
   407.66         623.1322
   407.80         620.5034
   407.94         618.1892
   408.08         616.2329
   408.22         614.5989
   408.36         613.1538
   408.50         611.6375
   408.64         609.6775
   408.78         606.8007
   408.92         602.4671
   409.06         596.2238
   409.20         587.9220
   409.34         577.8228
   409.48         566.5683
   409.62         555.0513
   409.76         544.2461
   409.90         535.0893
   410.04         528.4046
   410.18         524.8210
   410.32         524.6751
   410.46         527.9492
   410.60         534.2409
   410.74         542.8126
   410.88         552.7219
   411.02         562.9520
   411.16         572.5308
   411.30         580.6439
   411.44         586.7414
   411.58         590.6147
   411.72         592.4182
   411.86         592.5635
   412.00         591.5174
   412.14         589.6884
   412.28         587.4096
   412.42         584.9568
   412.56         582.5797
   412.70         580.4760
   412.84         578.7289
   412.98         577.2703
   413.12         575.9149
   413.26         574.4780
   413.40         572.9072
   413.54         571.2970
   413.68         569.8005
   413.82         568.5420
   413.96         567.5923
   414.10         566.9924
   414.24         566.7682
   414.38         566.9523
   414.52         567.5811
   414.66         568.6696
   414.80         570.1991
   414.94         572.0791
   415.08         574.1178
   415.22         576.0547
   415.36         577.6267
   415.50         578.6272
   415.64         578.9469
   415.78         578.6232
   415.92         577.8480
   416.06         576.8706
   416.20         575.8655
   416.34         574.9242
   416.48         574.1061
   416.62         573.4367
   416.76         572.9085
   416.90         572.4918
   417.04         572.1533
   417.18         571.8722
   417.32         571.6513
   417.46         571.5160
   417.60         571.4821
   417.74         571.5473
   417.88         571.7266
   418.02         572.0497
   418.16         572.5203
   418.30         573.0930
   418.44         573.6849
   418.58         574.1751
   418.72         574.4083
   418.86         574.2701
   419.00         573.7400
   419.14         572.8239
   419.28         571.5278
   419.42         569.9259
   419.56         568.1626
   419.70         566.4005
   419.84         564.7783
   419.98         563.4064
   420.12         562.3912
   420.26         561.8217
   420.40         561.7253
   420.54         562.0374
   420.68         562.5937
   420.82         563.2037
   420.96         563.7117
   421.10         563.9948
   421.24         563.9648
   421.38         563.5830
   421.52         562.8534
   421.66         561.8040
   421.80         560.4949
   421.94         559.0512
   422.08         557.6236
   422.22         556.2888
   422.36         555.0386
   422.50         553.8364
   422.64         552.6623
   422.78         551.5159
   422.92         550.3879
   423.06         549.2389
   423.20         548.0295
   423.34         546.7634
   423.48         545.5017
   423.62         544.3361
   423.76         543.3592
   423.90         542.6606
   424.04         542.3150
   424.18         542.3448
   424.32         542.7222
   424.46         543.3803
   424.60         544.1913
   424.74         544.9901
   424.88         545.6419
   425.02         546.0868
   425.16         546.3241
   425.30         546.3541
   425.44         546.1406
   425.58         545.6153
   425.72         544.7019
   425.86         543.3695
   426.00         541.6564
   426.14         539.6525
   426.28         537.4741
   426.42         535.2397
   426.56         533.0614
   426.70         531.0330
   426.84         529.2125
   426.98         527.6365
   427.12         526.3352
   427.26         525.3273
   427.40         524.6265
   427.54         524.2314
   427.68         524.0876
   427.82         524.0862
   427.96         524.1074
   428.10         524.0689
   428.24         523.9549
   428.38         523.8079
   428.52         523.7044
   428.66         523.7199
   428.80         523.9160
   428.94         524.3455
   429.08         525.0438
   429.22         526.0064
   429.36         527.1743
   429.50         528.4432
   429.64         529.6956
   429.78         530.8366
   429.92         531.7880
   430.06         532.4841
   430.20         532.8825
   430.34         532.9606
   430.48         532.7276
   430.62         532.2266
   430.76         531.5162
   430.90         530.6740
   431.04         529.7891
   431.18         528.9322
   431.32         528.1319
   431.46         527.3859
   431.60         526.6829
   431.74         525.9941
   431.88         525.2633
   432.02         524.4147
   432.16         523.3735
   432.30         522.0621
   432.44         520.3564
   432.58         518.0403
   432.72         514.7806
   432.86         510.1990
   433.00         504.0409
   433.14         496.3292
   433.28         487.4160
   433.42         477.9166
   433.56         468.5818
   433.70         460.1652
   433.84         453.3429
   433.98         448.6464
   434.12         446.4105
   434.26         446.7587
   434.40         449.6012
   434.54         454.6340
   434.68         461.3453
   434.82         469.0784
   434.96         477.1234
   435.10         484.8165
   435.24         491.6218
   435.38         497.1997
   435.52         501.4929
   435.66         504.6850
   435.80         507.0448
   435.94         508.7985
   436.08         510.0759
   436.22         510.9413
   436.36         511.4361
   436.50         511.5943
   436.64         511.4491
   436.78         511.0478
   436.92         510.4527
   437.06         509.7067
   437.20         508.8035
   437.34         507.7069
   437.48         506.3673
   437.62         504.6930
   437.76         502.5747
   437.90         499.9697
   438.04         496.9435
   438.18         493.6657
   438.32         490.3827
   438.46         487.3747
   438.60         484.9150
   438.74         483.2258
   438.88         482.4484
   439.02         482.6162
   439.16         483.6566
   439.30         485.4200
   439.44         487.6889
   439.58         490.2005
   439.72         492.6848
   439.86         494.9113
   440.00         496.7084
   440.14         497.9357
   440.28         498.4809
   440.42         498.3124
   440.56         497.4778
   440.70         496.0236
   440.84         493.9731
   440.98         491.3533
   441.12         488.1937
   441.26         484.5354
   441.40         480.4481
   441.54         476.0259
   441.68         471.3859
   441.82         466.6685
   441.96         462.0243
   442.10         457.6059
   442.24         453.5594
   442.38         450.0030
   442.52         447.0213
   442.66         444.6539
   442.80         442.8957
   442.94         441.7350
   443.08         441.1959
   443.22         441.3155
   443.36         442.1063
   443.50         443.5497
   443.64         445.5824
   443.78         448.0905
   443.92         450.9297
   444.06         453.9552
   444.20         457.0377
   444.34         460.0800
   444.48         463.0107
   444.62         465.7622
   444.76         468.2740
   444.90         470.5005
   445.04         472.4036
   445.18         473.9553
   445.32         475.1484
   445.46         475.9954
   445.60         476.4885
   445.74         476.5322
   445.88         475.9308
   446.02         474.4673
   446.16         472.0398
   446.30         468.7367
   446.44         464.8014
   446.58         460.5595
   446.72         456.3434
   446.86         452.4270
   447.00         449.0245
   447.14         446.3244
   447.28         444.4971
   447.42         443.6765
   447.56         443.9247
   447.70         445.1856
   447.84         447.2773
   447.98         449.9421
   448.12         452.8700
   448.26         455.7117
   448.40         458.1625
   448.54         460.0691
   448.68         461.4505
   448.82         462.4477
   448.96         463.2124
   449.10         463.8127
   449.24         464.2485
   449.38         464.5060
   449.52         464.6149
   449.66         464.6898
   449.80         464.8756
   449.94         465.2568
   450.08         465.8261
   450.22         466.5048
   450.36         467.1898
   450.50         467.7922
   450.64         468.2685
   450.78         468.6022
   450.92         468.7705
   451.06         468.7427
   451.20         468.4927
   451.34         468.0120
   451.48         467.3115
   451.62         466.3997
   451.76         465.2669
   451.90         463.9034
   452.04         462.3284
   452.18         460.6119
   452.32         458.8749
   452.46         457.2565
   452.60         455.8811
   452.74         454.8329
   452.88         454.1444
