# File HD191010
# Wavelength [nm]    Normalized Amplitude
   349.70         6.6092
   349.84         6.6128
   349.98         6.6389
   350.12         6.6791
   350.26         6.7241
   350.40         6.7661
   350.54         6.8001
   350.68         6.8240
   350.82         6.8378
   350.96         6.8439
   351.10         6.8454
   351.24         6.8439
   351.38         6.8378
   351.52         6.8240
   351.66         6.8001
   351.80         6.7661
   351.94         6.7241
   352.08         6.6791
   352.22         6.6389
   352.36         6.6128
   352.50         6.6092
   352.64         6.6337
   352.78         6.6882
   352.92         6.7710
   353.06         6.8776
   353.20         7.0015
   353.34         7.1331
   353.48         7.2608
   353.62         7.3727
   353.76         7.4588
   353.90         7.5127
   354.04         7.5326
   354.18         7.5211
   354.32         7.4834
   354.46         7.4251
   354.60         7.3511
   354.74         7.2659
   354.88         7.1737
   355.02         7.0782
   355.16         6.9823
   355.30         6.8875
   355.44         6.7930
   355.58         6.6977
   355.72         6.6019
   355.86         6.5060
   356.00         6.4097
   356.14         6.3125
   356.28         6.2146
   356.42         6.1168
   356.56         6.0191
   356.70         5.9206
   356.84         5.8195
   356.98         5.7141
   357.12         5.6016
   357.26         5.4792
   357.40         5.3450
   357.54         5.1988
   357.68         5.0434
   357.82         4.8849
   357.96         4.7327
   358.10         4.5994
   358.24         4.4997
   358.38         4.4495
   358.52         4.4633
   358.66         4.5528
   358.80         4.7231
   358.94         4.9723
   359.08         5.2888
   359.22         5.6528
   359.36         6.0401
   359.50         6.4268
   359.64         6.7905
   359.78         7.1091
   359.92         7.3644
   360.06         7.5458
   360.20         7.6519
   360.34         7.6889
   360.48         7.6687
   360.62         7.6075
   360.76         7.5214
   360.90         7.4240
   361.04         7.3263
   361.18         7.2379
   361.32         7.1674
   361.46         7.1223
   361.60         7.1098
   361.74         7.1349
   361.88         7.1998
   362.02         7.3009
   362.16         7.4281
   362.30         7.5660
   362.44         7.6996
   362.58         7.8198
   362.72         7.9242
   362.86         8.0144
   363.00         8.0945
   363.14         8.1691
   363.28         8.2422
   363.42         8.3156
   363.56         8.3887
   363.70         8.4606
   363.84         8.5307
   363.98         8.5982
   364.12         8.6622
   364.26         8.7220
   364.40         8.7758
   364.54         8.8221
   364.68         8.8619
   364.82         8.9017
   364.96         8.9522
   365.10         9.0248
   365.24         9.1261
   365.38         9.2555
   365.52         9.4054
   365.66         9.5625
   365.80         9.7103
   365.94         9.8330
   366.08         9.9180
   366.22         9.9591
   366.36         9.9587
   366.50         9.9270
   366.64         9.8769
   366.78         9.8190
   366.92         9.7615
   367.06         9.7105
   367.20         9.6700
   367.34         9.6425
   367.48         9.6276
   367.62         9.6204
   367.76         9.6128
   367.90         9.5984
   368.04         9.5762
   368.18         9.5508
   368.32         9.5306
   368.46         9.5241
   368.60         9.5383
   368.74         9.5801
   368.88         9.6562
   369.02         9.7724
   369.16         9.9283
   369.30         10.1140
   369.44         10.3120
   369.58         10.5023
   369.72         10.6643
   369.86         10.7791
   370.00         10.8342
   370.14         10.8253
   370.28         10.7591
   370.42         10.6550
   370.56         10.5410
   370.70         10.4440
   370.84         10.3809
   370.98         10.3547
   371.12         10.3583
   371.26         10.3819
   371.40         10.4176
   371.54         10.4581
   371.68         10.4934
   371.82         10.5116
   371.96         10.5024
   372.10         10.4606
   372.24         10.3854
   372.38         10.2786
   372.52         10.1447
   372.66         9.9923
   372.80         9.8334
   372.94         9.6814
   373.08         9.5470
   373.22         9.4343
   373.36         9.3399
   373.50         9.2567
   373.64         9.1785
   373.78         9.1027
   373.92         9.0296
   374.06         8.9619
   374.20         8.9037
   374.34         8.8603
   374.48         8.8365
   374.62         8.8321
   374.76         8.8391
   374.90         8.8472
   375.04         8.8511
   375.18         8.8532
   375.32         8.8604
   375.46         8.8798
   375.60         8.9129
   375.74         8.9551
   375.88         8.9985
   376.02         9.0374
   376.16         9.0711
   376.30         9.1039
   376.44         9.1445
   376.58         9.2058
   376.72         9.3009
   376.86         9.4362
   377.00         9.6100
   377.14         9.8125
   377.28         10.0284
   377.42         10.2418
   377.56         10.4379
   377.70         10.6025
   377.84         10.7210
   377.98         10.7808
   378.12         10.7726
   378.26         10.6919
   378.40         10.5408
   378.54         10.3283
   378.68         10.0677
   378.82         9.7752
   378.96         9.4701
   379.10         9.1760
   379.24         8.9184
   379.38         8.7175
   379.52         8.5853
   379.66         8.5247
   379.80         8.5325
   379.94         8.6002
   380.08         8.7134
   380.22         8.8537
   380.36         9.0008
   380.50         9.1350
   380.64         9.2394
   380.78         9.2990
   380.92         9.3013
   381.06         9.2389
   381.20         9.1110
   381.34         8.9231
   381.48         8.6876
   381.62         8.4224
   381.76         8.1476
   381.90         7.8778
   382.04         7.6208
   382.18         7.3811
   382.32         7.1631
   382.46         6.9722
   382.60         6.8097
   382.74         6.6715
   382.88         6.5515
   383.02         6.4455
   383.16         6.3534
   383.30         6.2794
   383.44         6.2278
   383.58         6.2017
   383.72         6.2016
   383.86         6.2251
   384.00         6.2681
   384.14         6.3257
   384.28         6.3920
   384.42         6.4591
   384.56         6.5165
   384.70         6.5540
   384.84         6.5650
   384.98         6.5481
   385.12         6.5082
   385.26         6.4533
   385.40         6.3928
   385.54         6.3359
   385.68         6.2899
   385.82         6.2583
   385.96         6.2401
   386.10         6.2316
   386.24         6.2299
   386.38         6.2369
   386.52         6.2570
   386.66         6.2938
   386.80         6.3475
   386.94         6.4164
   387.08         6.4992
   387.22         6.5975
   387.36         6.7153
   387.50         6.8577
   387.64         7.0302
   387.78         7.2360
   387.92         7.4749
   388.06         7.7458
   388.20         8.0473
   388.34         8.3768
   388.48         8.7302
   388.62         9.1030
   388.76         9.4898
   388.90         9.8837
   389.04         10.2744
   389.18         10.6466
   389.32         10.9814
   389.46         11.2628
   389.60         11.4807
   389.74         11.6335
   389.88         11.7260
   390.02         11.7662
   390.16         11.7656
   390.30         11.7381
   390.44         11.6971
   390.58         11.6534
   390.72         11.6130
   390.86         11.5741
   391.00         11.5299
   391.14         11.4725
   391.28         11.3938
   391.42         11.2845
   391.56         11.1329
   391.70         10.9251
   391.84         10.6470
   391.98         10.2881
   392.12         9.8455
   392.26         9.3260
   392.40         8.7453
   392.54         8.1259
   392.68         7.4962
   392.82         6.8895
   392.96         6.3401
   393.10         5.8801
   393.24         5.5376
   393.38         5.3358
   393.52         5.2894
   393.66         5.4036
   393.80         5.6726
   393.94         6.0777
   394.08         6.5903
   394.22         7.1762
   394.36         7.8007
   394.50         8.4303
   394.64         9.0353
   394.78         9.5914
   394.92         10.0777
   395.06         10.4747
   395.20         10.7638
   395.34         10.9279
   395.48         10.9521
   395.62         10.8262
   395.76         10.5480
   395.90         10.1283
   396.04         9.5925
   396.18         8.9794
   396.32         8.3385
   396.46         7.7257
   396.60         7.1990
   396.74         6.8128
   396.88         6.6108
   397.02         6.6190
   397.16         6.8429
   397.30         7.2689
   397.44         7.8680
   397.58         8.5992
   397.72         9.4144
   397.86         10.2651
   398.00         11.1067
   398.14         11.9013
   398.28         12.6211
   398.42         13.2486
   398.56         13.7762
   398.70         14.2057
   398.84         14.5477
   398.98         14.8193
   399.12         15.0406
   399.26         15.2292
   399.40         15.3955
   399.54         15.5440
   399.68         15.6768
   399.82         15.7986
   399.96         15.9160
   400.10         16.0357
   400.24         16.1616
   400.38         16.2943
   400.52         16.4321
   400.66         16.5720
   400.80         16.7099
   400.94         16.8414
   401.08         16.9615
   401.22         17.0667
   401.36         17.1569
   401.50         17.2350
   401.64         17.3033
   401.78         17.3602
   401.92         17.3980
   402.06         17.4073
   402.20         17.3836
   402.34         17.3290
   402.48         17.2512
   402.62         17.1614
   402.76         17.0722
   402.90         16.9953
   403.04         16.9391
   403.18         16.9072
   403.32         16.8962
   403.46         16.8966
   403.60         16.8990
   403.74         16.8995
   403.88         16.9001
   404.02         16.9039
   404.16         16.9103
   404.30         16.9139
   404.44         16.9054
   404.58         16.8770
   404.72         16.8275
   404.86         16.7640
   405.00         16.6972
   405.14         16.6355
   405.28         16.5806
   405.42         16.5282
   405.56         16.4718
   405.70         16.4081
   405.84         16.3384
   405.98         16.2689
   406.12         16.2107
   406.26         16.1771
   406.40         16.1746
   406.54         16.1957
   406.68         16.2227
   406.82         16.2400
   406.96         16.2408
   407.10         16.2274
   407.24         16.2077
   407.38         16.1908
   407.52         16.1863
   407.66         16.2031
   407.80         16.2500
   407.94         16.3352
   408.08         16.4663
   408.22         16.6473
   408.36         16.8751
   408.50         17.1359
   408.64         17.4065
   408.78         17.6575
   408.92         17.8565
   409.06         17.9722
   409.20         17.9858
   409.34         17.9000
   409.48         17.7366
   409.62         17.5254
   409.76         17.2947
   409.90         17.0681
   410.04         16.8666
   410.18         16.7104
   410.32         16.6178
   410.46         16.6003
   410.60         16.6588
   410.74         16.7820
   410.88         16.9490
   411.02         17.1328
   411.16         17.3059
   411.30         17.4457
   411.44         17.5365
   411.58         17.5694
   411.72         17.5442
   411.86         17.4685
   412.00         17.3533
   412.14         17.2081
   412.28         17.0406
   412.42         16.8601
   412.56         16.6807
   412.70         16.5213
   412.84         16.4002
   412.98         16.3277
   413.12         16.3016
   413.26         16.3088
   413.40         16.3334
   413.54         16.3623
   413.68         16.3861
   413.82         16.3966
   413.96         16.3852
   414.10         16.3436
   414.24         16.2659
   414.38         16.1502
   414.52         16.0005
   414.66         15.8285
   414.80         15.6518
   414.94         15.4916
   415.08         15.3680
   415.22         15.2967
   415.36         15.2853
   415.50         15.3316
   415.64         15.4255
   415.78         15.5542
   415.92         15.7050
   416.06         15.8636
   416.20         16.0114
   416.34         16.1273
   416.48         16.1921
   416.62         16.1928
   416.76         16.1249
   416.90         15.9928
   417.04         15.8105
   417.18         15.6001
   417.32         15.3891
   417.46         15.2055
   417.60         15.0728
   417.74         15.0056
   417.88         15.0100
   418.02         15.0832
   418.16         15.2154
   418.30         15.3911
   418.44         15.5889
   418.58         15.7821
   418.72         15.9440
   418.86         16.0548
   419.00         16.1057
   419.14         16.0973
   419.28         16.0372
   419.42         15.9402
   419.56         15.8278
   419.70         15.7248
   419.84         15.6539
   419.98         15.6320
   420.12         15.6691
   420.26         15.7646
   420.40         15.9075
   420.54         16.0826
   420.68         16.2769
   420.82         16.4828
   420.96         16.6959
   421.10         16.9113
   421.24         17.1220
   421.38         17.3169
   421.52         17.4816
   421.66         17.6051
   421.80         17.6864
   421.94         17.7353
   422.08         17.7673
   422.22         17.7946
   422.36         17.8230
   422.50         17.8532
   422.64         17.8835
   422.78         17.9119
   422.92         17.9387
   423.06         17.9698
   423.20         18.0173
   423.34         18.0930
   423.48         18.2008
   423.62         18.3320
   423.76         18.4679
   423.90         18.5893
   424.04         18.6854
   424.18         18.7582
   424.32         18.8185
   424.46         18.8772
   424.60         18.9376
   424.74         18.9923
   424.88         19.0280
   425.02         19.0349
   425.16         19.0135
   425.30         18.9756
   425.44         18.9404
   425.58         18.9265
   425.72         18.9444
   425.86         18.9919
   426.00         19.0555
   426.14         19.1152
   426.28         19.1516
   426.42         19.1535
   426.56         19.1206
   426.70         19.0605
   426.84         18.9824
   426.98         18.8939
   427.12         18.8028
   427.26         18.7172
   427.40         18.6432
   427.54         18.5856
   427.68         18.5473
   427.82         18.5267
   427.96         18.5152
   428.10         18.4981
   428.24         18.4614
   428.38         18.3939
   428.52         18.2875
   428.66         18.1372
   428.80         17.9403
   428.94         17.6968
   429.08         17.4100
   429.22         17.0844
   429.36         16.7241
   429.50         16.3338
   429.64         15.9189
   429.78         15.4880
   429.92         15.0540
   430.06         14.6346
   430.20         14.2539
   430.34         13.9436
   430.48         13.7429
   430.62         13.6944
   430.76         13.8341
   430.90         14.1784
   431.04         14.7150
   431.18         15.4037
   431.32         16.1850
   431.46         16.9929
   431.60         17.7698
   431.74         18.4757
   431.88         19.0859
   432.02         19.5877
   432.16         19.9794
   432.30         20.2711
   432.44         20.4825
   432.58         20.6361
   432.72         20.7471
   432.86         20.8210
   433.00         20.8573
   433.14         20.8545
   433.28         20.8116
   433.42         20.7279
   433.56         20.6051
   433.70         20.4512
   433.84         20.2829
   433.98         20.1216
   434.12         19.9912
   434.26         19.9174
   434.40         19.9204
   434.54         20.0092
   434.68         20.1783
   434.82         20.4118
   434.96         20.6874
   435.10         20.9799
   435.24         21.2668
   435.38         21.5328
   435.52         21.7741
   435.66         21.9950
   435.80         22.2005
   435.94         22.3923
   436.08         22.5655
   436.22         22.7074
   436.36         22.7988
   436.50         22.8219
   436.64         22.7694
   436.78         22.6506
   436.92         22.4870
   437.06         22.2988
   437.20         22.0959
   437.34         21.8770
   437.48         21.6391
   437.62         21.3848
   437.76         21.1214
   437.90         20.8556
   438.04         20.5933
   438.18         20.3415
   438.32         20.1098
   438.46         19.9107
   438.60         19.7595
   438.74         19.6685
   438.88         19.6427
   439.02         19.6813
   439.16         19.7817
   439.30         19.9374
   439.44         20.1303
   439.58         20.3320
   439.72         20.5122
   439.86         20.6502
   440.00         20.7439
   440.14         20.8086
   440.28         20.8640
   440.42         20.9226
   440.56         20.9903
   440.70         21.0712
   440.84         21.1701
   440.98         21.2893
   441.12         21.4256
   441.26         21.5716
   441.40         21.7178
   441.54         21.8554
   441.68         21.9792
   441.82         22.0859
   441.96         22.1717
   442.10         22.2330
   442.24         22.2694
   442.38         22.2826
   442.52         22.2780
   442.66         22.2646
   442.80         22.2507
   442.94         22.2385
   443.08         22.2262
   443.22         22.2134
   443.36         22.2043
   443.50         22.2070
   443.64         22.2284
   443.78         22.2723
   443.92         22.3411
   444.06         22.4351
   444.20         22.5486
   444.34         22.6683
   444.48         22.7754
   444.62         22.8518
   444.76         22.8837
   444.90         22.8625
   445.04         22.7847
   445.18         22.6552
   445.32         22.4870
   445.46         22.2950
   445.60         22.0925
   445.74         21.8931
   445.88         21.7136
   446.02         21.5754
   446.16         21.5002
   446.30         21.5048
   446.44         21.5985
   446.58         21.7831
   446.72         22.0518
   446.86         22.3850
   447.00         22.7528
   447.14         23.1248
   447.28         23.4777
   447.42         23.7969
   447.56         24.0740
   447.70         24.3013
   447.84         24.4711
   447.98         24.5771
   448.12         24.6164
   448.26         24.5906
   448.40         24.5073
   448.54         24.3834
   448.68         24.2436
   448.82         24.1140
   448.96         24.0144
   449.10         23.9572
   449.24         23.9516
   449.38         24.0043
   449.52         24.1180
   449.66         24.2939
   449.80         24.5324
   449.94         24.8304
   450.08         25.1751
   450.22         25.5392
   450.36         25.8871
   450.50         26.1870
   450.64         26.4174
   450.78         26.5670
   450.92         26.6328
   451.06         26.6200
   451.20         26.5399
   451.34         26.4053
   451.48         26.2268
   451.62         26.0111
   451.76         25.7637
   451.90         25.4912
   452.04         25.1988
   452.18         24.8904
   452.32         24.5707
   452.46         24.2497
   452.60         23.9441
   452.74         23.6728
   452.88         23.4523
   453.02         23.2958
   453.16         23.2144
   453.30         23.2142
   453.44         23.2920
   453.58         23.4341
   453.72         23.6167
   453.86         23.8103
   454.00         23.9866
   454.14         24.1237
   454.28         24.2066
   454.42         24.2305
   454.56         24.2034
   454.70         24.1438
   454.84         24.0754
   454.98         24.0233
   455.12         24.0099
   455.26         24.0475
   455.40         24.1339
   455.54         24.2584
   455.68         24.4119
   455.82         24.5873
   455.96         24.7755
   456.10         24.9646
   456.24         25.1442
   456.38         25.3075
   456.52         25.4511
   456.66         25.5741
   456.80         25.6740
   456.94         25.7452
   457.08         25.7820
   457.22         25.7814
   457.36         25.7422
   457.50         25.6658
   457.64         25.5577
   457.78         25.4280
   457.92         25.2894
   458.06         25.1551
   458.20         25.0381
   458.34         24.9469
