# File HD209678
# Wavelength [nm]    Normalized Amplitude
   349.70         284.2212
   349.84         284.6137
   349.98         284.8532
   350.12         284.8820
   350.26         284.6959
   350.40         284.3411
   350.54         283.8788
   350.68         283.3779
   350.82         282.9233
   350.96         282.6058
   351.10         282.4924
   351.24         282.6058
   351.38         282.9233
   351.52         283.3779
   351.66         283.8788
   351.80         284.3411
   351.94         284.6959
   352.08         284.8820
   352.22         284.8532
   352.36         284.6137
   352.50         284.2212
   352.64         283.7560
   352.78         283.3119
   352.92         282.9811
   353.06         282.8214
   353.20         282.8557
   353.34         283.0857
   353.48         283.4880
   353.62         284.0100
   353.76         284.5669
   353.90         285.0295
   354.04         285.2358
   354.18         285.0524
   354.32         284.4378
   354.46         283.4461
   354.60         282.1777
   354.74         280.7387
   354.88         279.2390
   355.02         277.7887
   355.16         276.4762
   355.30         275.3583
   355.44         274.4662
   355.58         273.8187
   355.72         273.4427
   355.86         273.3592
   356.00         273.5478
   356.14         273.9520
   356.28         274.5007
   356.42         275.1019
   356.56         275.6400
   356.70         276.0144
   356.84         276.1664
   356.98         276.0608
   357.12         275.6694
   357.26         274.9689
   357.40         273.9494
   357.54         272.6218
   357.68         271.0196
   357.82         269.2130
   357.96         267.3300
   358.10         265.5265
   358.24         263.9373
   358.38         262.6550
   358.52         261.7148
   358.66         261.1013
   358.80         260.7683
   358.94         260.6394
   359.08         260.6173
   359.22         260.6196
   359.36         260.6029
   359.50         260.5531
   359.64         260.4560
   359.78         260.3016
   359.92         260.0961
   360.06         259.8401
   360.20         259.5314
   360.34         259.1953
   360.48         258.8889
   360.62         258.6661
   360.76         258.5450
   360.90         258.5152
   361.04         258.5485
   361.18         258.6108
   361.32         258.6870
   361.46         258.7770
   361.60         258.8736
   361.74         258.9603
   361.88         259.0161
   362.02         259.0085
   362.16         258.8882
   362.30         258.6085
   362.44         258.1782
   362.58         257.6671
   362.72         257.1563
   362.86         256.7175
   363.00         256.4107
   363.14         256.2758
   363.28         256.3300
   363.42         256.5663
   363.56         256.9524
   363.70         257.4519
   363.84         258.0312
   363.98         258.6454
   364.12         259.2390
   364.26         259.7669
   364.40         260.2091
   364.54         260.5737
   364.68         260.8887
   364.82         261.2131
   364.96         261.6390
   365.10         262.2346
   365.24         262.9874
   365.38         263.8114
   365.52         264.6041
   365.66         265.2834
   365.80         265.7838
   365.94         266.0456
   366.08         266.0233
   366.22         265.7124
   366.36         265.1460
   366.50         264.3536
   366.64         263.3656
   366.78         262.2363
   366.92         261.0338
   367.06         259.8291
   367.20         258.7041
   367.34         257.7466
   367.48         257.0257
   367.62         256.5804
   367.76         256.4147
   367.90         256.4977
   368.04         256.7762
   368.18         257.1870
   368.32         257.6502
   368.46         258.0568
   368.60         258.2957
   368.74         258.3081
   368.88         258.0926
   369.02         257.6554
   369.16         256.9854
   369.30         256.0814
   369.44         254.9911
   369.58         253.8304
   369.72         252.7346
   369.86         251.7809
   370.00         250.9909
   370.14         250.3743
   370.28         249.9633
   370.42         249.8114
   370.56         249.9731
   370.70         250.4849
   370.84         251.3286
   370.98         252.4110
   371.12         253.6039
   371.26         254.8212
   371.40         256.0402
   371.54         257.2566
   371.68         258.4508
   371.82         259.6026
   371.96         260.6973
   372.10         261.6771
   372.24         262.4219
   372.38         262.7939
   372.52         262.7257
   372.66         262.3105
   372.80         261.7819
   372.94         261.4219
   373.08         261.4695
   373.22         262.0665
   373.36         263.2333
   373.50         264.8621
   373.64         266.7459
   373.78         268.6262
   373.92         270.2430
   374.06         271.3792
   374.20         271.8985
   374.34         271.7572
   374.48         271.0025
   374.62         269.7820
   374.76         268.3482
   374.90         267.0495
   375.04         266.2720
   375.18         266.3425
   375.32         267.4332
   375.46         269.4856
   375.60         272.1811
   375.74         274.9861
   375.88         277.2842
   376.02         278.5369
   376.16         278.4224
   376.30         276.9148
   376.44         274.2849
   376.58         271.0354
   376.72         267.7754
   376.86         265.0771
   377.00         263.3659
   377.14         262.8906
   377.28         263.7434
   377.42         265.8664
   377.56         269.0667
   377.70         273.0476
   377.84         277.4275
   377.98         281.7732
   378.12         285.6446
   378.26         288.6262
   378.40         290.3750
   378.54         290.6872
   378.68         289.5506
   378.82         287.1451
   378.96         283.7903
   379.10         279.8859
   379.24         275.8517
   379.38         272.0835
   379.52         268.9482
   379.66         266.7864
   379.80         265.8898
   379.94         266.4411
   380.08         268.4716
   380.22         271.8448
   380.36         276.2436
   380.50         281.1860
   380.64         286.0961
   380.78         290.4050
   380.92         293.6684
   381.06         295.6745
   381.20         296.4758
   381.34         296.3317
   381.48         295.5764
   381.62         294.4894
   381.76         293.2303
   381.90         291.8298
   382.04         290.2191
   382.18         288.2686
   382.32         285.8320
   382.46         282.8117
   382.60         279.2116
   382.74         275.1537
   382.88         270.8570
   383.02         266.6150
   383.16         262.7812
   383.30         259.7428
   383.44         257.8732
   383.58         257.4532
   383.72         258.6013
   383.86         261.2464
   384.00         265.1322
   384.14         269.8380
   384.28         274.8555
   384.42         279.6858
   384.56         283.9093
   384.70         287.2500
   384.84         289.6138
   384.98         291.0641
   385.12         291.7493
   385.26         291.8238
   385.40         291.4045
   385.54         290.5776
   385.68         289.4152
   385.82         287.9828
   385.96         286.3456
   386.10         284.5837
   386.24         282.7970
   386.38         281.0897
   386.52         279.5432
   386.66         278.1894
   386.80         277.0207
   386.94         276.0213
   387.08         275.1627
   387.22         274.3594
   387.36         273.4411
   387.50         272.1689
   387.64         270.2908
   387.78         267.6450
   387.92         264.2450
   388.06         260.2873
   388.20         256.1052
   388.34         252.1061
   388.48         248.7197
   388.62         246.3268
   388.76         245.2007
   388.90         245.4902
   389.04         247.2071
   389.18         250.2213
   389.32         254.2711
   389.46         258.9910
   389.60         263.9547
   389.74         268.7211
   389.88         272.8863
   390.02         276.1535
   390.16         278.3910
   390.30         279.6364
   390.44         280.0438
   390.58         279.8066
   390.72         279.0885
   390.86         277.9988
   391.00         276.6162
   391.14         275.0023
   391.28         273.1965
   391.42         271.2421
   391.56         269.2155
   391.70         267.2101
   391.84         265.2818
   391.98         263.4062
   392.12         261.5112
   392.26         259.5609
   392.40         257.6057
   392.54         255.7613
   392.68         254.1673
   392.82         252.9576
   392.96         252.2358
   393.10         252.0650
   393.24         252.4730
   393.38         253.4467
   393.52         254.9276
   393.66         256.8220
   393.80         258.9933
   393.94         261.2682
   394.08         263.4655
   394.22         265.4077
   394.36         266.9263
   394.50         267.8842
   394.64         268.2298
   394.78         268.0324
   394.92         267.4335
   395.06         266.5405
   395.20         265.3627
   395.34         263.8175
   395.48         261.7412
   395.62         258.9163
   395.76         255.1572
   395.90         250.4162
   396.04         244.8316
   396.18         238.7073
   396.32         232.4623
   396.46         226.5658
   396.60         221.4849
   396.74         217.6354
   396.88         215.3296
   397.02         214.7363
   397.16         215.8623
   397.30         218.5498
   397.44         222.4862
   397.58         227.2434
   397.72         232.3439
   397.86         237.3244
   398.00         241.7727
   398.14         245.3637
   398.28         247.9277
   398.42         249.4884
   398.56         250.2184
   398.70         250.3358
   398.84         250.0286
   398.98         249.4493
   399.12         248.7250
   399.26         247.9513
   399.40         247.1855
   399.54         246.4437
   399.68         245.7159
   399.82         245.0017
   399.96         244.3258
   400.10         243.7218
   400.24         243.2208
   400.38         242.8485
   400.52         242.6161
   400.66         242.5120
   400.80         242.5093
   400.94         242.5791
   401.08         242.6757
   401.22         242.6978
   401.36         242.4962
   401.50         241.9484
   401.64         241.0100
   401.78         239.7094
   401.92         238.1255
   402.06         236.3688
   402.20         234.5754
   402.34         232.9120
   402.48         231.5540
   402.62         230.6313
   402.76         230.1919
   402.90         230.2149
   403.04         230.6273
   403.18         231.3145
   403.32         232.1414
   403.46         232.9817
   403.60         233.7411
   403.74         234.3662
   403.88         234.8466
   404.02         235.2275
   404.16         235.5969
   404.30         236.0273
   404.44         236.5392
   404.58         237.1052
   404.72         237.6717
   404.86         238.1852
   405.00         238.6064
   405.14         238.9024
   405.28         239.0438
   405.42         239.0177
   405.56         238.8314
   405.70         238.4958
   405.84         238.0096
   405.98         237.3609
   406.12         236.5384
   406.26         235.5428
   406.40         234.3876
   406.54         233.1000
   406.68         231.7329
   406.82         230.3647
   406.96         229.0791
   407.10         227.9580
   407.24         227.0749
   407.38         226.4765
   407.52         226.1750
   407.66         226.1432
   407.80         226.3169
   407.94         226.6122
   408.08         226.9377
   408.22         227.1900
   408.36         227.2483
   408.50         226.9788
   408.64         226.2459
   408.78         224.9156
   408.92         222.8711
   409.06         220.0679
   409.20         216.5870
   409.34         212.6337
   409.48         208.4974
   409.62         204.5104
   409.76         201.0091
   409.90         198.2879
   410.04         196.5697
   410.18         195.9953
   410.32         196.6046
   410.46         198.3208
   410.60         200.9468
   410.74         204.1815
   410.88         207.6602
   411.02         211.0176
   411.16         213.9493
   411.30         216.2535
   411.44         217.8525
   411.58         218.7937
   411.72         219.2212
   411.86         219.3184
   412.00         219.2500
   412.14         219.1396
   412.28         219.0657
   412.42         219.0578
   412.56         219.1037
   412.70         219.1679
   412.84         219.1977
   412.98         219.1137
   413.12         218.8194
   413.26         218.2467
   413.40         217.3999
   413.54         216.3530
   413.68         215.2133
   413.82         214.0909
   413.96         213.0815
   414.10         212.2569
   414.24         211.6597
   414.38         211.3175
   414.52         211.2566
   414.66         211.4879
   414.80         211.9918
   414.94         212.7113
   415.08         213.5504
   415.22         214.3944
   415.36         215.1361
   415.50         215.6844
   415.64         215.9750
   415.78         216.0014
   415.92         215.8233
   416.06         215.5244
   416.20         215.1618
   416.34         214.7613
   416.48         214.3433
   416.62         213.9333
   416.76         213.5552
   416.90         213.2266
   417.04         212.9573
   417.18         212.7423
   417.32         212.5619
   417.46         212.3884
   417.60         212.1903
   417.74         211.9457
   417.88         211.6626
   418.02         211.3716
   418.16         211.1055
   418.30         210.8914
   418.44         210.7465
   418.58         210.6689
   418.72         210.6314
   418.86         210.5930
   419.00         210.5259
   419.14         210.4210
   419.28         210.2742
   419.42         210.0819
   419.56         209.8498
   419.70         209.5935
   419.84         209.3322
   419.98         209.0901
   420.12         208.8951
   420.26         208.7745
   420.40         208.7502
   420.54         208.8279
   420.68         208.9868
   420.82         209.1863
   420.96         209.3797
   421.10         209.5212
   421.24         209.5759
   421.38         209.5288
   421.52         209.3863
   421.66         209.1686
   421.80         208.8947
   421.94         208.5834
   422.08         208.2620
   422.22         207.9566
   422.36         207.6764
   422.50         207.4150
   422.64         207.1631
   422.78         206.9138
   422.92         206.6566
   423.06         206.3772
   423.20         206.0658
   423.34         205.7244
   423.48         205.3709
   423.62         205.0356
   423.76         204.7492
   423.90         204.5309
   424.04         204.3882
   424.18         204.3110
   424.32         204.2762
   424.46         204.2636
   424.60         204.2544
   424.74         204.2253
   424.88         204.1493
   425.02         204.0013
   425.16         203.7637
   425.30         203.4195
   425.44         202.9501
   425.58         202.3465
   425.72         201.6227
   425.86         200.8126
   426.00         199.9539
   426.14         199.0786
   426.28         198.2172
   426.42         197.3982
   426.56         196.6510
   426.70         196.0089
   426.84         195.5011
   426.98         195.1507
   427.12         194.9689
   427.26         194.9443
   427.40         195.0510
   427.54         195.2527
   427.68         195.5056
   427.82         195.7684
   427.96         196.0135
   428.10         196.2353
   428.24         196.4487
   428.38         196.6736
   428.52         196.9218
   428.66         197.1957
   428.80         197.4909
   428.94         197.7943
   429.08         198.0836
   429.22         198.3322
   429.36         198.5130
   429.50         198.6005
   429.64         198.5729
   429.78         198.4144
   429.92         198.1241
   430.06         197.7229
   430.20         197.2427
   430.34         196.7106
   430.48         196.1447
   430.62         195.5557
   430.76         194.9562
   430.90         194.3688
   431.04         193.8212
   431.18         193.3397
   431.32         192.9459
   431.46         192.6499
   431.60         192.4513
   431.74         192.3385
   431.88         192.2816
   432.02         192.2316
   432.16         192.1243
   432.30         191.8757
   432.44         191.3790
   432.58         190.5055
   432.72         189.1098
   432.86         187.0675
   433.00         184.3424
   433.14         181.0291
   433.28         177.3402
   433.42         173.5541
   433.56         169.9602
   433.70         166.8220
   433.84         164.3654
   433.98         162.7645
   434.12         162.1204
   434.26         162.4545
   434.40         163.7105
   434.54         165.7679
   434.68         168.4532
   434.82         171.5473
   434.96         174.8032
   435.10         177.9788
   435.24         180.8709
   435.38         183.3412
   435.52         185.3377
   435.66         186.8769
   435.80         187.9961
   435.94         188.7204
   436.08         189.0696
   436.22         189.0825
   436.36         188.8243
   436.50         188.3794
   436.64         187.8411
   436.78         187.2952
   436.92         186.8076
   437.06         186.4214
   437.20         186.1486
   437.34         185.9530
   437.48         185.7532
   437.62         185.4528
   437.76         184.9786
   437.90         184.3080
   438.04         183.4734
   438.18         182.5543
   438.32         181.6563
   438.46         180.8883
   438.60         180.3487
   438.74         180.1108
   438.88         180.2097
   439.02         180.6335
   439.16         181.3304
   439.30         182.2203
   439.44         183.2053
   439.58         184.1789
   439.72         185.0328
   439.86         185.6651
   440.00         185.9936
   440.14         185.9745
   440.28         185.6055
   440.42         184.9216
   440.56         183.9805
   440.70         182.8426
   440.84         181.5650
   440.98         180.2027
   441.12         178.8076
   441.26         177.4217
   441.40         176.0730
   441.54         174.7777
   441.68         173.5466
   441.82         172.3894
   441.96         171.3180
   442.10         170.3392
   442.24         169.4489
   442.38         168.6387
   442.52         167.9072
   442.66         167.2621
   442.80         166.7201
   442.94         166.3099
   443.08         166.0755
   443.22         166.0615
   443.36         166.2933
   443.50         166.7671
   443.64         167.4481
   443.78         168.2782
   443.92         169.1904
   444.06         170.1265
   444.20         171.0449
   444.34         171.9200
   444.48         172.7363
   444.62         173.4798
   444.76         174.1348
   444.90         174.6890
   445.04         175.1341
   445.18         175.4674
   445.32         175.6953
   445.46         175.8195
   445.60         175.8151
   445.74         175.6199
   445.88         175.1472
   446.02         174.3280
   446.16         173.1571
   446.30         171.7019
   446.44         170.0771
   446.58         168.4184
   446.72         166.8542
   446.86         165.4887
   447.00         164.4017
   447.14         163.6525
   447.28         163.2790
   447.42         163.2952
   447.56         163.6913
   447.70         164.4307
   447.84         165.4454
   447.98         166.6386
   448.12         167.8912
   448.26         169.0827
   448.40         170.1252
   448.54         170.9873
   448.68         171.6887
   448.82         172.2641
   448.96         172.7229
   449.10         173.0444
   449.24         173.2030
   449.38         173.1860
   449.52         173.0074
   449.66         172.7082
   449.80         172.3390
   449.94         171.9470
   450.08         171.5716
   450.22         171.2429
   450.36         170.9825
   450.50         170.8014
   450.64         170.7021
   450.78         170.6775
   450.92         170.7114
   451.06         170.7831
   451.20         170.8689
   451.34         170.9431
   451.48         170.9766
   451.62         170.9387
   451.76         170.8087
   451.90         170.5822
   452.04         170.2686
   452.18         169.8917
   452.32         169.4885
   452.46         169.0996
   452.60         168.7612
   452.74         168.4990
   452.88         168.3265
