# File HD21619
# Wavelength [nm]    Normalized Amplitude
   349.70         17.2991
   349.84         17.3267
   349.98         17.3771
   350.12         17.4436
   350.26         17.5206
   350.40         17.6046
   350.54         17.6922
   350.68         17.7770
   350.82         17.8495
   350.96         17.8995
   351.10         17.9175
   351.24         17.8995
   351.38         17.8495
   351.52         17.7770
   351.66         17.6922
   351.80         17.6046
   351.94         17.5206
   352.08         17.4436
   352.22         17.3771
   352.36         17.3267
   352.50         17.2991
   352.64         17.2980
   352.78         17.3253
   352.92         17.3812
   353.06         17.4614
   353.20         17.5585
   353.34         17.6639
   353.48         17.7701
   353.62         17.8721
   353.76         17.9687
   353.90         18.0604
   354.04         18.1467
   354.18         18.2234
   354.32         18.2848
   354.46         18.3265
   354.60         18.3448
   354.74         18.3372
   354.88         18.3036
   355.02         18.2452
   355.16         18.1638
   355.30         18.0618
   355.44         17.9411
   355.58         17.8043
   355.72         17.6543
   355.86         17.4940
   356.00         17.3278
   356.14         17.1637
   356.28         17.0128
   356.42         16.8838
   356.56         16.7820
   356.70         16.7098
   356.84         16.6673
   356.98         16.6525
   357.12         16.6610
   357.26         16.6852
   357.40         16.7166
   357.54         16.7472
   357.68         16.7711
   357.82         16.7844
   357.96         16.7861
   358.10         16.7792
   358.24         16.7719
   358.38         16.7754
   358.52         16.8016
   358.66         16.8605
   358.80         16.9570
   358.94         17.0870
   359.08         17.2375
   359.22         17.3930
   359.36         17.5388
   359.50         17.6616
   359.64         17.7499
   359.78         17.7973
   359.92         17.8017
   360.06         17.7660
   360.20         17.6978
   360.34         17.6070
   360.48         17.5037
   360.62         17.3965
   360.76         17.2924
   360.90         17.1971
   361.04         17.1154
   361.18         17.0497
   361.32         17.0010
   361.46         16.9711
   361.60         16.9619
   361.74         16.9745
   361.88         17.0088
   362.02         17.0631
   362.16         17.1340
   362.30         17.2181
   362.44         17.3121
   362.58         17.4113
   362.72         17.5108
   362.86         17.6049
   363.00         17.6861
   363.14         17.7476
   363.28         17.7861
   363.42         17.8019
   363.56         17.7981
   363.70         17.7769
   363.84         17.7405
   363.98         17.6924
   364.12         17.6376
   364.26         17.5811
   364.40         17.5276
   364.54         17.4822
   364.68         17.4510
   364.82         17.4413
   364.96         17.4569
   365.10         17.4955
   365.24         17.5518
   365.38         17.6193
   365.52         17.6913
   365.66         17.7624
   365.80         17.8294
   365.94         17.8894
   366.08         17.9389
   366.22         17.9755
   366.36         17.9981
   366.50         18.0076
   366.64         18.0060
   366.78         17.9946
   366.92         17.9740
   367.06         17.9454
   367.20         17.9101
   367.34         17.8683
   367.48         17.8201
   367.62         17.7652
   367.76         17.7049
   367.90         17.6432
   368.04         17.5853
   368.18         17.5352
   368.32         17.4941
   368.46         17.4590
   368.60         17.4248
   368.74         17.3889
   368.88         17.3538
   369.02         17.3230
   369.16         17.2970
   369.30         17.2724
   369.44         17.2448
   369.58         17.2127
   369.72         17.1766
   369.86         17.1365
   370.00         17.0918
   370.14         17.0451
   370.28         17.0018
   370.42         16.9708
   370.56         16.9622
   370.70         16.9819
   370.84         17.0278
   370.98         17.0908
   371.12         17.1600
   371.26         17.2293
   371.40         17.2996
   371.54         17.3733
   371.68         17.4514
   371.82         17.5330
   371.96         17.6161
   372.10         17.6950
   372.24         17.7596
   372.38         17.7970
   372.52         17.7985
   372.66         17.7655
   372.80         17.7104
   372.94         17.6539
   373.08         17.6165
   373.22         17.6113
   373.36         17.6406
   373.50         17.6987
   373.64         17.7750
   373.78         17.8562
   373.92         17.9292
   374.06         17.9838
   374.20         18.0162
   374.34         18.0289
   374.48         18.0291
   374.62         18.0273
   374.76         18.0387
   374.90         18.0847
   375.04         18.1904
   375.18         18.3770
   375.32         18.6521
   375.46         19.0023
   375.60         19.3917
   375.74         19.7661
   375.88         20.0661
   376.02         20.2412
   376.16         20.2627
   376.30         20.1313
   376.44         19.8791
   376.58         19.5646
   376.72         19.2613
   376.86         19.0414
   377.00         18.9629
   377.14         19.0625
   377.28         19.3548
   377.42         19.8321
   377.56         20.4644
   377.70         21.2014
   377.84         21.9773
   377.98         22.7179
   378.12         23.3493
   378.26         23.8053
   378.40         24.0349
   378.54         24.0085
   378.68         23.7243
   378.82         23.2104
   378.96         22.5204
   379.10         21.7255
   379.24         20.9063
   379.38         20.1430
   379.52         19.5071
   379.66         19.0570
   379.80         18.8338
   379.94         18.8593
   380.08         19.1325
   380.22         19.6289
   380.36         20.3048
   380.50         21.1042
   380.64         21.9651
   380.78         22.8253
   380.92         23.6283
   381.06         24.3293
   381.20         24.8996
   381.34         25.3255
   381.48         25.6040
   381.62         25.7354
   381.76         25.7207
   381.90         25.5600
   382.04         25.2504
   382.18         24.7882
   382.32         24.1738
   382.46         23.4186
   382.60         22.5487
   382.74         21.6076
   382.88         20.6534
   383.02         19.7558
   383.16         18.9889
   383.30         18.4198
   383.44         18.1002
   383.58         18.0609
   383.72         18.3095
   383.86         18.8307
   384.00         19.5902
   384.14         20.5389
   384.28         21.6175
   384.42         22.7609
   384.56         23.9043
   384.70         24.9909
   384.84         25.9800
   384.98         26.8531
   385.12         27.6108
   385.26         28.2659
   385.40         28.8364
   385.54         29.3394
   385.68         29.7890
   385.82         30.1925
   385.96         30.5478
   386.10         30.8462
   386.24         31.0749
   386.38         31.2194
   386.52         31.2656
   386.66         31.2013
   386.80         31.0170
   386.94         30.7066
   387.08         30.2685
   387.22         29.7053
   387.36         29.0207
   387.50         28.2174
   387.64         27.2992
   387.78         26.2756
   387.92         25.1687
   388.06         24.0158
   388.20         22.8654
   388.34         21.7725
   388.48         20.7938
   388.62         19.9845
   388.76         19.3936
   388.90         19.0582
   389.04         18.9989
   389.18         19.2156
   389.32         19.6888
   389.46         20.3838
   389.60         21.2559
   389.74         22.2536
   389.88         23.3224
   390.02         24.4096
   390.16         25.4721
   390.30         26.4808
   390.44         27.4203
   390.58         28.2834
   390.72         29.0647
   390.86         29.7586
   391.00         30.3614
   391.14         30.8730
   391.28         31.2947
   391.42         31.6263
   391.56         31.8648
   391.70         32.0032
   391.84         32.0266
   391.98         31.9108
   392.12         31.6282
   392.26         31.1602
   392.40         30.5118
   392.54         29.7183
   392.68         28.8421
   392.82         27.9617
   392.96         27.1588
   393.10         26.5074
   393.24         26.0660
   393.38         25.8740
   393.52         25.9476
   393.66         26.2751
   393.80         26.8169
   393.94         27.5086
   394.08         28.2681
   394.22         29.0056
   394.36         29.6348
   394.50         30.0835
   394.64         30.3067
   394.78         30.2943
   394.92         30.0666
   395.06         29.6586
   395.20         29.1021
   395.34         28.4117
   395.48         27.5860
   395.62         26.6178
   395.76         25.5073
   395.90         24.2734
   396.04         22.9569
   396.18         21.6164
   396.32         20.3214
   396.46         19.1477
   396.60         18.1702
   396.74         17.4538
   396.88         17.0456
   397.02         16.9716
   397.16         17.2334
   397.30         17.8076
   397.44         18.6481
   397.58         19.6911
   397.72         20.8637
   397.86         22.0923
   398.00         23.3110
   398.14         24.4697
   398.28         25.5391
   398.42         26.5088
   398.56         27.3822
   398.70         28.1690
   398.84         28.8794
   398.98         29.5222
   399.12         30.1034
   399.26         30.6244
   399.40         31.0830
   399.54         31.4770
   399.68         31.8078
   399.82         32.0816
   399.96         32.3072
   400.10         32.4943
   400.24         32.6527
   400.38         32.7919
   400.52         32.9222
   400.66         33.0525
   400.80         33.1896
   400.94         33.3363
   401.08         33.4910
   401.22         33.6489
   401.36         33.8038
   401.50         33.9490
   401.64         34.0766
   401.78         34.1782
   401.92         34.2472
   402.06         34.2809
   402.20         34.2808
   402.34         34.2532
   402.48         34.2059
   402.62         34.1477
   402.76         34.0883
   402.90         34.0383
   403.04         34.0058
   403.18         33.9941
   403.32         33.9998
   403.46         34.0157
   403.60         34.0347
   403.74         34.0526
   403.88         34.0682
   404.02         34.0820
   404.16         34.0929
   404.30         34.0980
   404.44         34.0939
   404.58         34.0785
   404.72         34.0516
   404.86         34.0138
   405.00         33.9638
   405.14         33.8982
   405.28         33.8125
   405.42         33.7025
   405.56         33.5645
   405.70         33.3975
   405.84         33.2037
   405.98         32.9884
   406.12         32.7588
   406.26         32.5217
   406.40         32.2810
   406.54         32.0368
   406.68         31.7874
   406.82         31.5325
   406.96         31.2734
   407.10         31.0112
   407.24         30.7455
   407.38         30.4735
   407.52         30.1910
   407.66         29.8947
   407.80         29.5816
   407.94         29.2473
   408.08         28.8841
   408.22         28.4807
   408.36         28.0233
   408.50         27.4957
   408.64         26.8808
   408.78         26.1631
   408.92         25.3337
   409.06         24.3971
   409.20         23.3754
   409.34         22.3082
   409.48         21.2487
   409.62         20.2564
   409.76         19.3914
   409.90         18.7094
   410.04         18.2560
   410.18         18.0620
   410.32         18.1384
   410.46         18.4749
   410.60         19.0428
   410.74         19.7999
   410.88         20.6944
   411.02         21.6686
   411.16         22.6652
   411.30         23.6343
   411.44         24.5386
   411.58         25.3567
   411.72         26.0827
   411.86         26.7205
   412.00         27.2784
   412.14         27.7661
   412.28         28.1938
   412.42         28.5717
   412.56         28.9101
   412.70         29.2202
   412.84         29.5123
   412.98         29.7928
   413.12         30.0639
   413.26         30.3252
   413.40         30.5750
   413.54         30.8100
   413.68         31.0263
   413.82         31.2215
   413.96         31.3940
   414.10         31.5415
   414.24         31.6607
   414.38         31.7477
   414.52         31.8003
   414.66         31.8202
   414.80         31.8135
   414.94         31.7885
   415.08         31.7542
   415.22         31.7195
   415.36         31.6922
   415.50         31.6769
   415.64         31.6762
   415.78         31.6916
   415.92         31.7227
   416.06         31.7654
   416.20         31.8113
   416.34         31.8509
   416.48         31.8744
   416.62         31.8725
   416.76         31.8387
   416.90         31.7723
   417.04         31.6790
   417.18         31.5703
   417.32         31.4597
   417.46         31.3590
   417.60         31.2768
   417.74         31.2204
   417.88         31.1955
   418.02         31.2044
   418.16         31.2448
   418.30         31.3103
   418.44         31.3905
   418.58         31.4716
   418.72         31.5401
   418.86         31.5861
   419.00         31.6045
   419.14         31.5938
   419.28         31.5568
   419.42         31.5009
   419.56         31.4359
   419.70         31.3716
   419.84         31.3158
   419.98         31.2742
   420.12         31.2495
   420.26         31.2427
   420.40         31.2534
   420.54         31.2783
   420.68         31.3109
   420.82         31.3430
   420.96         31.3660
   421.10         31.3726
   421.24         31.3572
   421.38         31.3164
   421.52         31.2483
   421.66         31.1548
   421.80         31.0423
   421.94         30.9198
   422.08         30.7956
   422.22         30.6755
   422.36         30.5633
   422.50         30.4628
   422.64         30.3790
   422.78         30.3162
   422.92         30.2770
   423.06         30.2621
   423.20         30.2698
   423.34         30.2953
   423.48         30.3301
   423.62         30.3636
   423.76         30.3848
   423.90         30.3854
   424.04         30.3612
   424.18         30.3137
   424.32         30.2509
   424.46         30.1825
   424.60         30.1161
   424.74         30.0571
   424.88         30.0093
   425.02         29.9773
   425.16         29.9662
   425.30         29.9796
   425.44         30.0180
   425.58         30.0789
   425.72         30.1563
   425.86         30.2401
   426.00         30.3171
   426.14         30.3733
   426.28         30.3986
   426.42         30.3900
   426.56         30.3513
   426.70         30.2912
   426.84         30.2212
   426.98         30.1522
   427.12         30.0921
   427.26         30.0455
   427.40         30.0149
   427.54         30.0007
   427.68         30.0009
   427.82         30.0096
   427.96         30.0176
   428.10         30.0147
   428.24         29.9916
   428.38         29.9416
   428.52         29.8604
   428.66         29.7470
   428.80         29.6038
   428.94         29.4361
   429.08         29.2511
   429.22         29.0561
   429.36         28.8574
   429.50         28.6588
   429.64         28.4617
   429.78         28.2673
   429.92         28.0788
   430.06         27.8996
   430.20         27.7306
   430.34         27.5712
   430.48         27.4213
   430.62         27.2819
   430.76         27.1537
   430.90         27.0341
   431.04         26.9176
   431.18         26.7966
   431.32         26.6636
   431.46         26.5113
   431.60         26.3336
   431.74         26.1271
   431.88         25.8882
   432.02         25.6119
   432.16         25.2914
   432.30         24.9196
   432.44         24.4877
   432.58         23.9843
   432.72         23.3969
   432.86         22.7164
   433.00         21.9447
   433.14         21.0983
   433.28         20.2078
   433.42         19.3145
   433.56         18.4671
   433.70         17.7168
   433.84         17.1105
   433.98         16.6851
   434.12         16.4650
   434.26         16.4618
   434.40         16.6721
   434.54         17.0775
   434.68         17.6472
   434.82         18.3422
   434.96         19.1186
   435.10         19.9322
   435.24         20.7443
   435.38         21.5260
   435.52         22.2601
   435.66         22.9390
   435.80         23.5615
   435.94         24.1276
   436.08         24.6374
   436.22         25.0904
   436.36         25.4853
   436.50         25.8230
   436.64         26.1086
   436.78         26.3509
   436.92         26.5594
   437.06         26.7409
   437.20         26.8987
   437.34         27.0341
   437.48         27.1477
   437.62         27.2412
   437.76         27.3173
   437.90         27.3800
   438.04         27.4332
   438.18         27.4797
   438.32         27.5211
   438.46         27.5595
   438.60         27.5982
   438.74         27.6400
   438.88         27.6851
   439.02         27.7317
   439.16         27.7772
   439.30         27.8177
   439.44         27.8486
   439.58         27.8661
   439.72         27.8693
   439.86         27.8611
   440.00         27.8480
   440.14         27.8372
   440.28         27.8327
   440.42         27.8334
   440.56         27.8350
   440.70         27.8335
   440.84         27.8264
   440.98         27.8134
   441.12         27.7962
   441.26         27.7772
   441.40         27.7574
   441.54         27.7373
   441.68         27.7189
   441.82         27.7055
   441.96         27.6997
   442.10         27.7034
   442.24         27.7170
   442.38         27.7390
   442.52         27.7666
   442.66         27.7975
   442.80         27.8291
   442.94         27.8586
   443.08         27.8833
   443.22         27.9016
   443.36         27.9127
   443.50         27.9165
   443.64         27.9130
   443.78         27.9037
   443.92         27.8902
   444.06         27.8731
   444.20         27.8520
   444.34         27.8269
   444.48         27.7983
   444.62         27.7676
   444.76         27.7374
   444.90         27.7109
   445.04         27.6905
   445.18         27.6779
   445.32         27.6721
   445.46         27.6692
   445.60         27.6634
   445.74         27.6505
   445.88         27.6302
   446.02         27.6057
   446.16         27.5807
   446.30         27.5570
   446.44         27.5351
   446.58         27.5139
   446.72         27.4901
   446.86         27.4574
   447.00         27.4096
   447.14         27.3432
   447.28         27.2596
   447.42         27.1636
   447.56         27.0599
   447.70         26.9527
   447.84         26.8460
   447.98         26.7445
   448.12         26.6543
   448.26         26.5839
   448.40         26.5414
   448.54         26.5317
   448.68         26.5546
   448.82         26.6046
   448.96         26.6727
   449.10         26.7493
   449.24         26.8256
   449.38         26.8944
   449.52         26.9522
   449.66         27.0001
   449.80         27.0427
   449.94         27.0849
   450.08         27.1289
   450.22         27.1737
   450.36         27.2177
   450.50         27.2592
   450.64         27.2960
   450.78         27.3251
   450.92         27.3421
   451.06         27.3409
   451.20         27.3165
   451.34         27.2674
   451.48         27.1958
   451.62         27.1072
   451.76         27.0085
   451.90         26.9058
   452.04         26.8024
   452.18         26.6998
   452.32         26.6017
   452.46         26.5148
   452.60         26.4458
   452.74         26.3983
   452.88         26.3723
   453.02         26.3661
   453.16         26.3781
   453.30         26.4063
   453.44         26.4472
   453.58         26.4941
   453.72         26.5378
   453.86         26.5704
   454.00         26.5861
   454.14         26.5807
   454.28         26.5502
   454.42         26.4932
   454.56         26.4114
   454.70         26.3126
   454.84         26.2092
   454.98         26.1138
   455.12         26.0351
   455.26         25.9769
   455.40         25.9402
   455.54         25.9247
   455.68         25.9296
   455.82         25.9527
   455.96         25.9882
   456.10         26.0285
   456.24         26.0663
   456.38         26.0980
   456.52         26.1235
   456.66         26.1426
   456.80         26.1539
   456.94         26.1553
