# File HD215835
# Wavelength [nm]    Normalized Amplitude
   349.70         514.2261
   349.84         515.7891
   349.98         517.0560
   350.12         517.9188
   350.26         518.3696
   350.40         518.4876
   350.54         518.3763
   350.68         518.1406
   350.82         517.8936
   350.96         517.7242
   351.10         517.6668
   351.24         517.7242
   351.38         517.8936
   351.52         518.1406
   351.66         518.3763
   351.80         518.4876
   351.94         518.3696
   352.08         517.9188
   352.22         517.0560
   352.36         515.7891
   352.50         514.2261
   352.64         512.5478
   352.78         510.9603
   352.92         509.6255
   353.06         508.6068
   353.20         507.8706
   353.34         507.3311
   353.48         506.8757
   353.62         506.3830
   353.76         505.7647
   353.90         505.0004
   354.04         504.0943
   354.18         503.0326
   354.32         501.8097
   354.46         500.4431
   354.60         498.9573
   354.74         497.3751
   354.88         495.7369
   355.02         494.0940
   355.16         492.4909
   355.30         490.9533
   355.44         489.4712
   355.58         488.0090
   355.72         486.5518
   355.86         485.1309
   356.00         483.8061
   356.14         482.6402
   356.28         481.6765
   356.42         480.9196
   356.56         480.3103
   356.70         479.7138
   356.84         478.9783
   356.98         477.9839
   357.12         476.6438
   357.26         474.9321
   357.40         472.8822
   357.54         470.5553
   357.68         468.0402
   357.82         465.4703
   357.96         463.0036
   358.10         460.7744
   358.24         458.8776
   358.38         457.3734
   358.52         456.2831
   358.66         455.5935
   358.80         455.2504
   358.94         455.1305
   359.08         455.0763
   359.22         454.9601
   359.36         454.7005
   359.50         454.2663
   359.64         453.6482
   359.78         452.8612
   359.92         451.9642
   360.06         451.0132
   360.20         450.0357
   360.34         449.0545
   360.48         448.1105
   360.62         447.2550
   360.76         446.5063
   360.90         445.8474
   361.04         445.2530
   361.18         444.6949
   361.32         444.1555
   361.46         443.6270
   361.60         443.1172
   361.74         442.6842
   361.88         442.4212
   362.02         442.3947
   362.16         442.6227
   362.30         443.0837
   362.44         443.7594
   362.58         444.6449
   362.72         445.6968
   362.86         446.8252
   363.00         447.9413
   363.14         448.9748
   363.28         449.8590
   363.42         450.5378
   363.56         450.9655
   363.70         451.1031
   363.84         450.9433
   363.98         450.5266
   364.12         449.9119
   364.26         449.1578
   364.40         448.3459
   364.54         447.5746
   364.68         446.9114
   364.82         446.3969
   364.96         446.0881
   365.10         446.0415
   365.24         446.2421
   365.38         446.6090
   365.52         447.0621
   365.66         447.5329
   365.80         447.9686
   365.94         448.3433
   366.08         448.6095
   366.22         448.6599
   366.36         448.3924
   366.50         447.7618
   366.64         446.7483
   366.78         445.3269
   366.92         443.4965
   367.06         441.3316
   367.20         438.9762
   367.34         436.6156
   367.48         434.4242
   367.62         432.5326
   367.76         431.0089
   367.90         429.8541
   368.04         429.0530
   368.18         428.5648
   368.32         428.2934
   368.46         428.1175
   368.60         427.8991
   368.74         427.5111
   368.88         426.8860
   369.02         426.0068
   369.16         424.8845
   369.30         423.5671
   369.44         422.1443
   369.58         420.7202
   369.72         419.3924
   369.86         418.2415
   370.00         417.3000
   370.14         416.5479
   370.28         415.9749
   370.42         415.5867
   370.56         415.3798
   370.70         415.3502
   370.84         415.4872
   370.98         415.7625
   371.12         416.1234
   371.26         416.4938
   371.40         416.7829
   371.54         416.8996
   371.68         416.7662
   371.82         416.3315
   371.96         415.5787
   372.10         414.5168
   372.24         413.1749
   372.38         411.6476
   372.52         410.1019
   372.66         408.7185
   372.80         407.6625
   372.94         407.0303
   373.08         406.8407
   373.22         407.0786
   373.36         407.6803
   373.50         408.5184
   373.64         409.4107
   373.78         410.1571
   373.92         410.5658
   374.06         410.4730
   374.20         409.7767
   374.34         408.4461
   374.48         406.5181
   374.62         404.0930
   374.76         401.3038
   374.90         398.3100
   375.04         395.3187
   375.18         392.5422
   375.32         390.1339
   375.46         388.1607
   375.60         386.5909
   375.74         385.3504
   375.88         384.3588
   376.02         383.5175
   376.16         382.7555
   376.30         382.0701
   376.44         381.5293
   376.58         381.2665
   376.72         381.4681
   376.86         382.3309
   377.00         383.9925
   377.14         386.4718
   377.28         389.6642
   377.42         393.3836
   377.56         397.3973
   377.70         401.4274
   377.84         405.1616
   377.98         408.3118
   378.12         410.6268
   378.26         411.8924
   378.40         411.9952
   378.54         410.9601
   378.68         408.9190
   378.82         406.0917
   378.96         402.7904
   379.10         399.3895
   379.24         396.2540
   379.38         393.6640
   379.52         391.7999
   379.66         390.7740
   379.80         390.6431
   379.94         391.4071
   380.08         393.0130
   380.22         395.3488
   380.36         398.2366
   380.50         401.4550
   380.64         404.7516
   380.78         407.8321
   380.92         410.4335
   381.06         412.4174
   381.20         413.7685
   381.34         414.5272
   381.48         414.7503
   381.62         414.4959
   381.76         413.7814
   381.90         412.5587
   382.04         410.7351
   382.18         408.2309
   382.32         405.0385
   382.46         401.2300
   382.60         396.9422
   382.74         392.3827
   382.88         387.8144
   383.02         383.5198
   383.16         379.7802
   383.30         376.8486
   383.44         374.9227
   383.58         374.1343
   383.72         374.5291
   383.86         376.0289
   384.00         378.4167
   384.14         381.3882
   384.28         384.6124
   384.42         387.7629
   384.56         390.5515
   384.70         392.7774
   384.84         394.3775
   384.98         395.4022
   385.12         395.9415
   385.26         396.0940
   385.40         395.9546
   385.54         395.5784
   385.68         394.9809
   385.82         394.1863
   385.96         393.2466
   386.10         392.2283
   386.24         391.1918
   386.38         390.1779
   386.52         389.2035
   386.66         388.2683
   386.80         387.3552
   386.94         386.4108
   387.08         385.3324
   387.22         383.9729
   387.36         382.1677
   387.50         379.7690
   387.64         376.6672
   387.78         372.8334
   387.92         368.3478
   388.06         363.3926
   388.20         358.2556
   388.34         353.3297
   388.48         349.0616
   388.62         345.8572
   388.76         344.0156
   388.90         343.7051
   389.04         344.9516
   389.18         347.6241
   389.32         351.4371
   389.46         355.9945
   389.60         360.8550
   389.74         365.5872
   389.88         369.8205
   390.02         373.2938
   390.16         375.8653
   390.30         377.4870
   390.44         378.1845
   390.58         378.0421
   390.72         377.2030
   390.86         375.8549
   391.00         374.1777
   391.14         372.3152
   391.28         370.3875
   391.42         368.5027
   391.56         366.7537
   391.70         365.2055
   391.84         363.8702
   391.98         362.6956
   392.12         361.6022
   392.26         360.5328
   392.40         359.4680
   392.54         358.4213
   392.68         357.4281
   392.82         356.5390
   392.96         355.8287
   393.10         355.3774
   393.24         355.2534
   393.38         355.4970
   393.52         356.0929
   393.66         356.9770
   393.80         358.0738
   393.94         359.3146
   394.08         360.6164
   394.22         361.8600
   394.36         362.8942
   394.50         363.5810
   394.64         363.8477
   394.78         363.6920
   394.92         363.1409
   395.06         362.1843
   395.20         360.7399
   395.34         358.6718
   395.48         355.8283
   395.62         352.0826
   395.76         347.3862
   395.90         341.8286
   396.04         335.6316
   396.18         329.1180
   396.32         322.6972
   396.46         316.8252
   396.60         311.9461
   396.74         308.4255
   396.88         306.5071
   397.02         306.2978
   397.16         307.7677
   397.30         310.7282
   397.44         314.8314
   397.58         319.6258
   397.72         324.6179
   397.86         329.3336
   398.00         333.3854
   398.14         336.5245
   398.28         338.6547
   398.42         339.8144
   398.56         340.1370
   398.70         339.7979
   398.84         338.9869
   398.98         337.9051
   399.12         336.7497
   399.26         335.6752
   399.40         334.7630
   399.54         334.0306
   399.68         333.4639
   399.82         333.0340
   399.96         332.6896
   400.10         332.3717
   400.24         332.0365
   400.38         331.6461
   400.52         331.1699
   400.66         330.5780
   400.80         329.8380
   400.94         328.9286
   401.08         327.8473
   401.22         326.6040
   401.36         325.2113
   401.50         323.6929
   401.64         322.0886
   401.78         320.4462
   401.92         318.8047
   402.06         317.1997
   402.20         315.6902
   402.34         314.3500
   402.48         313.2369
   402.62         312.3793
   402.76         311.7961
   402.90         311.5063
   403.04         311.5139
   403.18         311.8074
   403.32         312.3557
   403.46         313.1156
   403.60         314.0360
   403.74         315.0556
   403.88         316.1192
   404.02         317.1888
   404.16         318.2272
   404.30         319.1777
   404.44         319.9717
   404.58         320.5474
   404.72         320.8774
   404.86         320.9715
   405.00         320.8587
   405.14         320.5828
   405.28         320.1955
   405.42         319.7475
   405.56         319.2774
   405.70         318.7920
   405.84         318.2662
   405.98         317.6688
   406.12         316.9796
   406.26         316.1966
   406.40         315.3399
   406.54         314.4435
   406.68         313.5463
   406.82         312.6841
   406.96         311.8831
   407.10         311.1580
   407.24         310.5173
   407.38         309.9616
   407.52         309.4769
   407.66         309.0280
   407.80         308.5620
   407.94         308.0113
   408.08         307.2989
   408.22         306.3510
   408.36         305.0957
   408.50         303.4485
   408.64         301.3178
   408.78         298.6321
   408.92         295.3704
   409.06         291.5789
   409.20         287.3711
   409.34         282.9303
   409.48         278.5052
   409.62         274.3915
   409.76         270.8963
   409.90         268.3013
   410.04         266.8403
   410.18         266.6627
   410.32         267.7860
   410.46         270.0824
   410.60         273.2994
   410.74         277.1036
   410.88         281.1367
   411.02         285.0522
   411.16         288.5436
   411.30         291.3911
   411.44         293.4977
   411.58         294.8806
   411.72         295.6316
   411.86         295.8899
   412.00         295.8222
   412.14         295.5849
   412.28         295.2882
   412.42         294.9850
   412.56         294.6919
   412.70         294.4145
   412.84         294.1406
   412.98         293.8314
   413.12         293.4464
   413.26         292.9756
   413.40         292.4397
   413.54         291.8656
   413.68         291.2690
   413.82         290.6512
   413.96         290.0136
   414.10         289.3721
   414.24         288.7516
   414.38         288.1782
   414.52         287.6814
   414.66         287.2796
   414.80         286.9674
   414.94         286.7286
   415.08         286.5487
   415.22         286.4171
   415.36         286.3160
   415.50         286.2076
   415.64         286.0505
   415.78         285.8222
   415.92         285.5192
   416.06         285.1429
   416.20         284.6971
   416.34         284.1992
   416.48         283.6803
   416.62         283.1805
   416.76         282.7445
   416.90         282.4086
   417.04         282.1901
   417.18         282.0834
   417.32         282.0574
   417.46         282.0715
   417.60         282.0894
   417.74         282.0731
   417.88         281.9784
   418.02         281.7586
   418.16         281.3828
   418.30         280.8442
   418.44         280.1361
   418.58         279.2397
   418.72         278.1385
   418.86         276.8326
   419.00         275.3469
   419.14         273.7310
   419.28         272.0600
   419.42         270.4291
   419.56         268.9336
   419.70         267.6572
   419.84         266.6695
   419.98         266.0199
   420.12         265.7360
   420.26         265.8110
   420.40         266.1947
   420.54         266.7995
   420.68         267.5205
   420.82         268.2596
   420.96         268.9297
   421.10         269.4545
   421.24         269.7894
   421.38         269.9335
   421.52         269.9192
   421.66         269.8010
   421.80         269.6393
   421.94         269.4819
   422.08         269.3534
   422.22         269.2530
   422.36         269.1608
   422.50         269.0500
   422.64         268.8951
   422.78         268.6744
   422.92         268.3629
   423.06         267.9362
   423.20         267.3879
   423.34         266.7496
   423.48         266.0849
   423.62         265.4554
   423.76         264.9003
   423.90         264.4467
   424.04         264.1199
   424.18         263.9302
   424.32         263.8590
   424.46         263.8602
   424.60         263.8722
   424.74         263.8373
   424.88         263.7143
   425.02         263.4826
   425.16         263.1407
   425.30         262.6978
   425.44         262.1658
   425.58         261.5589
   425.72         260.9021
   425.86         260.2358
   426.00         259.6052
   426.14         259.0397
   426.28         258.5473
   426.42         258.1292
   426.56         257.7882
   426.70         257.5203
   426.84         257.3054
   426.98         257.1185
   427.12         256.9378
   427.26         256.7482
   427.40         256.5456
   427.54         256.3295
   427.68         256.0907
   427.82         255.8107
   427.96         255.4763
   428.10         255.0882
   428.24         254.6609
   428.38         254.2190
   428.52         253.7924
   428.66         253.4069
   428.80         253.0785
   428.94         252.8161
   429.08         252.6231
   429.22         252.4965
   429.36         252.4232
   429.50         252.3765
   429.64         252.3247
   429.78         252.2444
   429.92         252.1293
   430.06         251.9908
   430.20         251.8486
   430.34         251.7222
   430.48         251.6293
   430.62         251.5871
   430.76         251.6072
   430.90         251.6865
   431.04         251.8026
   431.18         251.9172
   431.32         251.9876
   431.46         251.9823
   431.60         251.8851
   431.74         251.6769
   431.88         251.3208
   432.02         250.7632
   432.16         249.9469
   432.30         248.8137
   432.44         247.2971
   432.58         245.3252
   432.72         242.8470
   432.86         239.8632
   433.00         236.4388
   433.14         232.7031
   433.28         228.8400
   433.42         225.0812
   433.56         221.6844
   433.70         218.9010
   433.84         216.9576
   433.98         216.0243
   434.12         216.1733
   434.26         217.3598
   434.40         219.4344
   434.54         222.1793
   434.68         225.3413
   434.82         228.6549
   434.96         231.8679
   435.10         234.7738
   435.24         237.2349
   435.38         239.1865
   435.52         240.6233
   435.66         241.5818
   435.80         242.1281
   435.94         242.3459
   436.08         242.3333
   436.22         242.1871
   436.36         241.9794
   436.50         241.7518
   436.64         241.5171
   436.78         241.2727
   436.92         241.0143
   437.06         240.7403
   437.20         240.4479
   437.34         240.1288
   437.48         239.7737
   437.62         239.3797
   437.76         238.9537
   437.90         238.5092
   438.04         238.0656
   438.18         237.6532
   438.32         237.3083
   438.46         237.0472
   438.60         236.8635
   438.74         236.7421
   438.88         236.6570
   439.02         236.5665
   439.16         236.4296
   439.30         236.2248
   439.44         235.9455
   439.58         235.5936
   439.72         235.1769
   439.86         234.7093
   440.00         234.2088
   440.14         233.6921
   440.28         233.1702
   440.42         232.6493
   440.56         232.1257
   440.70         231.5816
   440.84         230.9873
   440.98         230.3119
   441.12         229.5322
   441.26         228.6432
   441.40         227.6545
   441.54         226.5795
   441.68         225.4353
   441.82         224.2472
   441.96         223.0442
   442.10         221.8536
   442.24         220.7045
   442.38         219.6285
   442.52         218.6587
   442.66         217.8253
   442.80         217.1510
   442.94         216.6503
   443.08         216.3331
   443.22         216.1999
   443.36         216.2392
   443.50         216.4298
   443.64         216.7443
   443.78         217.1531
   443.92         217.6313
   444.06         218.1664
   444.20         218.7513
   444.34         219.3764
   444.48         220.0300
   444.62         220.6984
   444.76         221.3661
   444.90         222.0122
   445.04         222.6035
   445.18         223.1012
   445.32         223.4704
   445.46         223.6784
   445.60         223.6931
   445.74         223.4923
   445.88         223.0733
   446.02         222.4491
   446.16         221.6442
   446.30         220.7023
   446.44         219.6889
   446.58         218.6742
   446.72         217.7198
   446.86         216.8721
   447.00         216.1651
   447.14         215.6241
   447.28         215.2595
   447.42         215.0647
   447.56         215.0186
   447.70         215.0923
   447.84         215.2503
   447.98         215.4490
   448.12         215.6389
   448.26         215.7781
   448.40         215.8525
   448.54         215.8684
   448.68         215.8357
   448.82         215.7616
   448.96         215.6538
   449.10         215.5210
   449.24         215.3692
   449.38         215.2006
   449.52         215.0099
   449.66         214.7886
   449.80         214.5288
   449.94         214.2263
   450.08         213.8872
   450.22         213.5261
   450.36         213.1544
   450.50         212.7788
   450.64         212.4080
   450.78         212.0486
   450.92         211.7036
   451.06         211.3751
   451.20         211.0615
   451.34         210.7541
   451.48         210.4344
   451.62         210.0804
   451.76         209.6824
   451.90         209.2432
   452.04         208.7687
   452.18         208.2562
   452.32         207.6954
   452.46         207.0731
   452.60         206.3714
   452.74         205.5720
   452.88         204.6652
