# File HD225160
# Wavelength [nm]    Normalized Amplitude
   349.70         565.1277
   349.84         565.9543
   349.98         566.1053
   350.12         565.5549
   350.26         564.3504
   350.40         562.6075
   350.54         560.5036
   350.68         558.3083
   350.82         556.3653
   350.96         555.0244
   351.10         554.5458
   351.24         555.0244
   351.38         556.3653
   351.52         558.3083
   351.66         560.5036
   351.80         562.6075
   351.94         564.3504
   352.08         565.5549
   352.22         566.1053
   352.36         565.9543
   352.50         565.1277
   352.64         563.6847
   352.78         561.7436
   352.92         559.4822
   353.06         557.0568
   353.20         554.5737
   353.34         552.1167
   353.48         549.7474
   353.62         547.4889
   353.76         545.3492
   353.90         543.3844
   354.04         541.6837
   354.18         540.3207
   354.32         539.3833
   354.46         538.9551
   354.60         539.0427
   354.74         539.5505
   354.88         540.3093
   355.02         541.1416
   355.16         541.8771
   355.30         542.3471
   355.44         542.4300
   355.58         542.0851
   355.72         541.3594
   355.86         540.3527
   356.00         539.1792
   356.14         537.9613
   356.28         536.8096
   356.42         535.7825
   356.56         534.8398
   356.70         533.8261
   356.84         532.5723
   356.98         530.9970
   357.12         529.0769
   357.26         526.8208
   357.40         524.2747
   357.54         521.5277
   357.68         518.7266
   357.82         516.0812
   357.96         513.8564
   358.10         512.3120
   358.24         511.5989
   358.38         511.7019
   358.52         512.4539
   358.66         513.6024
   358.80         514.8848
   358.94         516.0513
   359.08         516.9014
   359.22         517.3300
   359.36         517.3086
   359.50         516.8482
   359.64         515.9525
   359.78         514.6099
   359.92         512.8344
   360.06         510.6914
   360.20         508.3114
   360.34         505.8718
   360.48         503.5435
   360.62         501.4370
   360.76         499.5964
   360.90         498.0369
   361.04         496.7650
   361.18         495.7768
   361.32         495.0901
   361.46         494.7638
   361.60         494.8268
   361.74         495.2342
   361.88         495.8709
   362.02         496.5597
   362.16         497.1161
   362.30         497.4294
   362.44         497.5132
   362.58         497.4516
   362.72         497.2966
   362.86         497.0519
   363.00         496.7321
   363.14         496.3869
   363.28         496.0931
   363.42         495.9564
   363.56         496.0474
   363.70         496.3599
   363.84         496.8578
   363.98         497.5053
   364.12         498.2325
   364.26         498.9365
   364.40         499.5414
   364.54         499.9864
   364.68         500.1947
   364.82         500.1386
   364.96         499.8945
   365.10         499.5800
   365.24         499.2655
   365.38         498.9808
   365.52         498.7557
   365.66         498.6309
   365.80         498.6217
   365.94         498.6665
   366.08         498.6144
   366.22         498.2521
   366.36         497.3772
   366.50         495.8658
   366.64         493.7048
   366.78         490.9930
   366.92         487.9278
   367.06         484.7600
   367.20         481.7346
   367.34         479.1121
   367.48         477.1408
   367.62         475.9669
   367.76         475.5971
   367.90         475.9024
   368.04         476.6764
   368.18         477.6957
   368.32         478.7560
   368.46         479.6352
   368.60         480.0912
   368.74         479.9661
   368.88         479.2194
   369.02         477.8839
   369.16         476.0473
   369.30         473.8244
   369.44         471.3162
   369.58         468.6255
   369.72         465.8851
   369.86         463.2301
   370.00         460.7508
   370.14         458.4910
   370.28         456.5075
   370.42         454.8934
   370.56         453.7439
   370.70         453.1416
   370.84         453.1307
   370.98         453.6442
   371.12         454.4976
   371.26         455.5148
   371.40         456.5885
   371.54         457.6266
   371.68         458.5319
   371.82         459.2364
   371.96         459.6968
   372.10         459.8581
   372.24         459.6629
   372.38         459.0871
   372.52         458.1655
   372.66         457.0310
   372.80         455.9223
   372.94         455.1095
   373.08         454.7936
   373.22         455.0496
   373.36         455.8324
   373.50         456.9878
   373.64         458.2588
   373.78         459.3642
   373.92         460.0781
   374.06         460.2362
   374.20         459.7160
   374.34         458.4345
   374.48         456.3809
   374.62         453.6137
   374.76         450.2553
   374.90         446.5604
   375.04         442.9411
   375.18         439.8588
   375.32         437.6716
   375.46         436.5375
   375.60         436.3938
   375.74         436.9635
   375.88         437.8483
   376.02         438.6885
   376.16         439.2431
   376.30         439.4111
   376.44         439.2516
   376.58         438.9564
   376.72         438.7702
   376.86         438.9031
   377.00         439.4864
   377.14         440.5693
   377.28         442.1452
   377.42         444.2070
   377.56         446.7605
   377.70         449.7467
   377.84         452.9749
   377.98         456.1630
   378.12         458.9891
   378.26         461.1233
   378.40         462.2865
   378.54         462.3296
   378.68         461.2653
   378.82         459.2518
   378.96         456.5734
   379.10         453.5910
   379.24         450.6650
   379.38         448.1052
   379.52         446.1578
   379.66         445.0111
   379.80         444.8006
   379.94         445.5929
   380.08         447.3408
   380.22         449.8514
   380.36         452.8111
   380.50         455.8469
   380.64         458.5721
   380.78         460.6188
   380.92         461.7240
   381.06         461.8327
   381.20         461.1204
   381.34         459.9231
   381.48         458.6077
   381.62         457.4492
   381.76         456.5650
   381.90         455.9107
   382.04         455.2952
   382.18         454.4272
   382.32         453.0102
   382.46         450.8481
   382.60         447.9070
   382.74         444.3182
   382.88         440.3267
   383.02         436.2411
   383.16         432.4155
   383.30         429.2323
   383.44         427.0551
   383.58         426.1732
   383.72         426.7390
   383.86         428.7117
   384.00         431.8501
   384.14         435.7437
   384.28         439.8871
   384.42         443.7595
   384.56         446.8947
   384.70         448.9710
   384.84         449.8917
   384.98         449.7900
   385.12         448.9253
   385.26         447.5525
   385.40         445.8604
   385.54         443.9790
   385.68         442.0124
   385.82         440.0655
   385.96         438.2415
   386.10         436.6183
   386.24         435.2377
   386.38         434.0898
   386.52         433.1143
   386.66         432.2156
   386.80         431.2875
   386.94         430.2574
   387.08         429.0895
   387.22         427.7420
   387.36         426.1279
   387.50         424.0989
   387.64         421.4763
   387.78         418.1285
   387.92         414.0800
   388.06         409.5455
   388.20         404.8675
   388.34         400.4467
   388.48         396.6838
   388.62         393.9165
   388.76         392.3700
   388.90         392.1491
   389.04         393.2554
   389.18         395.6031
   389.32         399.0099
   389.46         403.1939
   389.60         407.7999
   389.74         412.4321
   389.88         416.7044
   390.02         420.2971
   390.16         422.9969
   390.30         424.7343
   390.44         425.6006
   390.58         425.7838
   390.72         425.4617
   390.86         424.7526
   391.00         423.7183
   391.14         422.3949
   391.28         420.8299
   391.42         419.1013
   391.56         417.3238
   391.70         415.6110
   391.84         413.9968
   391.98         412.4039
   392.12         410.7086
   392.26         408.8492
   392.40         406.8864
   392.54         404.9516
   392.68         403.1791
   392.82         401.6950
   392.96         400.6179
   393.10         400.0382
   393.24         399.9738
   393.38         400.3711
   393.52         401.1434
   393.66         402.1998
   393.80         403.4478
   393.94         404.7875
   394.08         406.1155
   394.22         407.3137
   394.36         408.2387
   394.50         408.7449
   394.64         408.7504
   394.78         408.2764
   394.92         407.4032
   395.06         406.1771
   395.20         404.5481
   395.34         402.3957
   395.48         399.5614
   395.62         395.8687
   395.76         391.1836
   395.90         385.5068
   396.04         379.0538
   396.18         372.2402
   396.32         365.5793
   396.46         359.5849
   396.60         354.7230
   396.74         351.3565
   396.88         349.6882
   397.02         349.7488
   397.16         351.4104
   397.30         354.4196
   397.44         358.4247
   397.58         363.0100
   397.72         367.7526
   397.86         372.2584
   398.00         376.1714
   398.14         379.2318
   398.28         381.3453
   398.42         382.5844
   398.56         383.1459
   398.70         383.2585
   398.84         383.0713
   398.98         382.6277
   399.12         381.9332
   399.26         381.0143
   399.40         379.9170
   399.54         378.6913
   399.68         377.3953
   399.82         376.0989
   399.96         374.8671
   400.10         373.7500
   400.24         372.7818
   400.38         371.9568
   400.52         371.2214
   400.66         370.4920
   400.80         369.6933
   400.94         368.7605
   401.08         367.6172
   401.22         366.1698
   401.36         364.3247
   401.50         362.0450
   401.64         359.3994
   401.78         356.5538
   401.92         353.7134
   402.06         351.0784
   402.20         348.8416
   402.34         347.1853
   402.48         346.2526
   402.62         346.1167
   402.76         346.7713
   402.90         348.1222
   403.04         349.9942
   403.18         352.1800
   403.32         354.4708
   403.46         356.6594
   403.60         358.5508
   403.74         359.9889
   403.88         360.8897
   404.02         361.2670
   404.16         361.2204
   404.30         360.8722
   404.44         360.3150
   404.58         359.6100
   404.72         358.8125
   404.86         357.9793
   405.00         357.1545
   405.14         356.3552
   405.28         355.5840
   405.42         354.8540
   405.56         354.1924
   405.70         353.6235
   405.84         353.1485
   405.98         352.7466
   406.12         352.3930
   406.26         352.0731
   406.40         351.7708
   406.54         351.4583
   406.68         351.1130
   406.82         350.7268
   406.96         350.3007
   407.10         349.8440
   407.24         349.3600
   407.38         348.8192
   407.52         348.1568
   407.66         347.2900
   407.80         346.1532
   407.94         344.7325
   408.08         343.0511
   408.22         341.1262
   408.36         338.9344
   408.50         336.4057
   408.64         333.4452
   408.78         329.9461
   408.92         325.8064
   409.06         320.9854
   409.20         315.5789
   409.34         309.8554
   409.48         304.2216
   409.62         299.1442
   409.76         295.0602
   409.90         292.3157
   410.04         291.1540
   410.18         291.7032
   410.32         293.9355
   410.46         297.6530
   410.60         302.5032
   410.74         308.0165
   410.88         313.6701
   411.02         318.9674
   411.16         323.5174
   411.30         327.0812
   411.44         329.5827
   411.58         331.1093
   411.72         331.8881
   411.86         332.2193
   412.00         332.3821
   412.14         332.5617
   412.28         332.8203
   412.42         333.1220
   412.56         333.3878
   412.70         333.5368
   412.84         333.4860
   412.98         333.1533
   413.12         332.4925
   413.26         331.5098
   413.40         330.2582
   413.54         328.8213
   413.68         327.2905
   413.82         325.7421
   413.96         324.2390
   414.10         322.8507
   414.24         321.6518
   414.38         320.6964
   414.52         320.0072
   414.66         319.5703
   414.80         319.3372
   414.94         319.2402
   415.08         319.2115
   415.22         319.1963
   415.36         319.1516
   415.50         319.0361
   415.64         318.8137
   415.78         318.4686
   415.92         318.0136
   416.06         317.4845
   416.20         316.9166
   416.34         316.3355
   416.48         315.7644
   416.62         315.2277
   416.76         314.7474
   416.90         314.3318
   417.04         313.9735
   417.18         313.6572
   417.32         313.3578
   417.46         313.0513
   417.60         312.7226
   417.74         312.3563
   417.88         311.9386
   418.02         311.4639
   418.16         310.9297
   418.30         310.3318
   418.44         309.6526
   418.58         308.8592
   418.72         307.9024
   418.86         306.7282
   419.00         305.3196
   419.14         303.7098
   419.28         301.9760
   419.42         300.2406
   419.56         298.6484
   419.70         297.3386
   419.84         296.4243
   419.98         295.9742
   420.12         296.0193
   420.26         296.5487
   420.40         297.4977
   420.54         298.7536
   420.68         300.1709
   420.82         301.5900
   420.96         302.8530
   421.10         303.8228
   421.24         304.4231
   421.38         304.6562
   421.52         304.5825
   421.66         304.2970
   421.80         303.8979
   421.94         303.4645
   422.08         303.0508
   422.22         302.6815
   422.36         302.3579
   422.50         302.0640
   422.64         301.7793
   422.78         301.4839
   422.92         301.1426
   423.06         300.7122
   423.20         300.1735
   423.34         299.5460
   423.48         298.8749
   423.62         298.2031
   423.76         297.5554
   423.90         296.9410
   424.04         296.3624
   424.18         295.8140
   424.32         295.2852
   424.46         294.7655
   424.60         294.2408
   424.74         293.7043
   424.88         293.1608
   425.02         292.6189
   425.16         292.0874
   425.30         291.5747
   425.44         291.0890
   425.58         290.6448
   425.72         290.2715
   425.86         290.0033
   426.00         289.8569
   426.14         289.8190
   426.28         289.8492
   426.42         289.8968
   426.56         289.9184
   426.70         289.8806
   426.84         289.7515
   426.98         289.5018
   427.12         289.1159
   427.26         288.5978
   427.40         287.9742
   427.54         287.2906
   427.68         286.6029
   427.82         285.9668
   427.96         285.4269
   428.10         285.0099
   428.24         284.7366
   428.38         284.6280
   428.52         284.6934
   428.66         284.9247
   428.80         285.2900
   428.94         285.7335
   429.08         286.1888
   429.22         286.5924
   429.36         286.8978
   429.50         287.0831
   429.64         287.1393
   429.78         287.0635
   429.92         286.8569
   430.06         286.5304
   430.20         286.1082
   430.34         285.6128
   430.48         285.0596
   430.62         284.4665
   430.76         283.8672
   430.90         283.3215
   431.04         282.8838
   431.18         282.5701
   431.32         282.3652
   431.46         282.2399
   431.60         282.1694
   431.74         282.1357
   431.88         282.1133
   432.02         282.0650
   432.16         281.9342
   432.30         281.6369
   432.44         281.0598
   432.58         280.0580
   432.72         278.4722
   432.86         276.1763
   433.00         273.1292
   433.14         269.4217
   433.28         265.2853
   433.42         261.0463
   433.56         257.0607
   433.70         253.6604
   433.84         251.1298
   433.98         249.6865
   434.12         249.4510
   434.26         250.4292
   434.40         252.5118
   434.54         255.4912
   434.68         259.0842
   434.82         262.9575
   434.96         266.7608
   435.10         270.1749
   435.24         272.9621
   435.38         275.0090
   435.52         276.3380
   435.66         277.0657
   435.80         277.3431
   435.94         277.3013
   436.08         277.0208
   436.22         276.5515
   436.36         275.9418
   436.50         275.2343
   436.64         274.4547
   436.78         273.6235
   436.92         272.7687
   437.06         271.9172
   437.20         271.0795
   437.34         270.2408
   437.48         269.3704
   437.62         268.4384
   437.76         267.4294
   437.90         266.3537
   438.04         265.2485
   438.18         264.1728
   438.32         263.1959
   438.46         262.3790
   438.60         261.7636
   438.74         261.3791
   438.88         261.2497
   439.02         261.3721
   439.16         261.7043
   439.30         262.1851
   439.44         262.7479
   439.58         263.3172
   439.72         263.8102
   439.86         264.1537
   440.00         264.3005
   440.14         264.2339
   440.28         263.9626
   440.42         263.5165
   440.56         262.9374
   440.70         262.2597
   440.84         261.5074
   440.98         260.6954
   441.12         259.8212
   441.26         258.8700
   441.40         257.8217
   441.54         256.6469
   441.68         255.3163
   441.82         253.8322
   441.96         252.2325
   442.10         250.5754
   442.24         248.9356
   442.38         247.3985
   442.52         246.0466
   442.66         244.9431
   442.80         244.1230
   442.94         243.5962
   443.08         243.3527
   443.22         243.3657
   443.36         243.5993
   443.50         244.0138
   443.64         244.5591
   443.78         245.1738
   443.92         245.7981
   444.06         246.3876
   444.20         246.9218
   444.34         247.4030
   444.48         247.8400
   444.62         248.2318
   444.76         248.5713
   444.90         248.8504
   445.04         249.0549
   445.18         249.1625
   445.32         249.1457
   445.46         248.9728
   445.60         248.5955
   445.74         247.9426
   445.88         246.9397
   446.02         245.5387
   446.16         243.7473
   446.30         241.6453
   446.44         239.3728
   446.58         237.1041
   446.72         235.0205
   446.86         233.2876
   447.00         232.0382
   447.14         231.3646
   447.28         231.3218
   447.42         231.9257
   447.56         233.1306
   447.70         234.8145
   447.84         236.7934
   447.98         238.8522
   448.12         240.7755
   448.26         242.3720
   448.40         243.5124
   448.54         244.1593
   448.68         244.3647
   448.82         244.2363
   448.96         243.8876
   449.10         243.4117
   449.24         242.8878
   449.38         242.3862
   449.52         241.9625
   449.66         241.6519
   449.80         241.4600
   449.94         241.3560
   450.08         241.2663
   450.22         241.0818
   450.36         240.6960
   450.50         240.0516
   450.64         239.1599
   450.78         238.0837
   450.92         236.9059
   451.06         235.7142
   451.20         234.6004
   451.34         233.6555
   451.48         232.9503
   451.62         232.5165
   451.76         232.3476
   451.90         232.4052
   452.04         232.6197
   452.18         232.8989
   452.32         233.1498
   452.46         233.2917
   452.60         233.2542
   452.74         232.9737
   452.88         232.4009
