# File HD22193
# Wavelength [nm]    Normalized Amplitude
   349.70         8.6637
   349.84         8.5714
   349.98         8.5202
   350.12         8.5016
   350.26         8.5051
   350.40         8.5226
   350.54         8.5507
   350.68         8.5860
   350.82         8.6206
   350.96         8.6453
   351.10         8.6540
   351.24         8.6453
   351.38         8.6206
   351.52         8.5860
   351.66         8.5507
   351.80         8.5226
   351.94         8.5051
   352.08         8.5016
   352.22         8.5202
   352.36         8.5714
   352.50         8.6637
   352.64         8.8000
   352.78         8.9775
   352.92         9.1877
   353.06         9.4179
   353.20         9.6508
   353.34         9.8657
   353.48         10.0441
   353.62         10.1752
   353.76         10.2583
   353.90         10.2996
   354.04         10.3091
   354.18         10.2956
   354.32         10.2642
   354.46         10.2153
   354.60         10.1484
   354.74         10.0662
   354.88         9.9732
   355.02         9.8730
   355.16         9.7657
   355.30         9.6472
   355.44         9.5115
   355.58         9.3543
   355.72         9.1740
   355.86         8.9729
   356.00         8.7574
   356.14         8.5370
   356.28         8.3228
   356.42         8.1251
   356.56         7.9516
   356.70         7.8059
   356.84         7.6892
   356.98         7.6006
   357.12         7.5367
   357.26         7.4903
   357.40         7.4516
   357.54         7.4109
   357.68         7.3618
   357.82         7.3032
   357.96         7.2401
   358.10         7.1841
   358.24         7.1508
   358.38         7.1579
   358.52         7.2215
   358.66         7.3536
   358.80         7.5576
   358.94         7.8251
   359.08         8.1366
   359.22         8.4636
   359.36         8.7715
   359.50         9.0284
   359.64         9.2111
   359.78         9.3059
   359.92         9.3119
   360.06         9.2401
   360.20         9.1109
   360.34         8.9472
   360.48         8.7685
   360.62         8.5885
   360.76         8.4178
   360.90         8.2681
   361.04         8.1532
   361.18         8.0862
   361.32         8.0771
   361.46         8.1306
   361.60         8.2435
   361.74         8.4047
   361.88         8.5956
   362.02         8.7939
   362.16         8.9806
   362.30         9.1417
   362.44         9.2703
   362.58         9.3656
   362.72         9.4298
   362.86         9.4663
   363.00         9.4793
   363.14         9.4742
   363.28         9.4590
   363.42         9.4420
   363.56         9.4290
   363.70         9.4227
   363.84         9.4229
   363.98         9.4285
   364.12         9.4396
   364.26         9.4578
   364.40         9.4873
   364.54         9.5364
   364.68         9.6188
   364.82         9.7488
   364.96         9.9342
   365.10         10.1725
   365.24         10.4503
   365.38         10.7458
   365.52         11.0327
   365.66         11.2843
   365.80         11.4779
   365.94         11.6008
   366.08         11.6539
   366.22         11.6492
   366.36         11.6056
   366.50         11.5412
   366.64         11.4702
   366.78         11.4018
   366.92         11.3381
   367.06         11.2765
   367.20         11.2121
   367.34         11.1395
   367.48         11.0527
   367.62         10.9462
   367.76         10.8211
   367.90         10.6868
   368.04         10.5577
   368.18         10.4497
   368.32         10.3764
   368.46         10.3490
   368.60         10.3766
   368.74         10.4619
   368.88         10.5993
   369.02         10.7762
   369.16         10.9736
   369.30         11.1672
   369.44         11.3306
   369.58         11.4396
   369.72         11.4783
   369.86         11.4412
   370.00         11.3357
   370.14         11.1805
   370.28         11.0027
   370.42         10.8310
   370.56         10.6876
   370.70         10.5817
   370.84         10.5086
   370.98         10.4561
   371.12         10.4116
   371.26         10.3681
   371.40         10.3226
   371.54         10.2709
   371.68         10.2063
   371.82         10.1238
   371.96         10.0220
   372.10         9.9035
   372.24         9.7710
   372.38         9.6258
   372.52         9.4685
   372.66         9.3021
   372.80         9.1313
   372.94         8.9615
   373.08         8.7965
   373.22         8.6371
   373.36         8.4817
   373.50         8.3309
   373.64         8.1900
   373.78         8.0669
   373.92         7.9701
   374.06         7.9053
   374.20         7.8769
   374.34         7.8902
   374.48         7.9473
   374.62         8.0414
   374.76         8.1600
   374.90         8.2950
   375.04         8.4436
   375.18         8.6061
   375.32         8.7822
   375.46         8.9664
   375.60         9.1464
   375.74         9.3064
   375.88         9.4345
   376.02         9.5301
   376.16         9.6048
   376.30         9.6782
   376.44         9.7723
   376.58         9.9075
   376.72         10.0984
   376.86         10.3503
   377.00         10.6559
   377.14         10.9982
   377.28         11.3554
   377.42         11.7067
   377.56         12.0309
   377.70         12.3059
   377.84         12.5128
   377.98         12.6396
   378.12         12.6808
   378.26         12.6366
   378.40         12.5121
   378.54         12.3174
   378.68         12.0665
   378.82         11.7769
   378.96         11.4698
   379.10         11.1724
   379.24         10.9147
   379.38         10.7209
   379.52         10.6056
   379.66         10.5733
   379.80         10.6219
   379.94         10.7429
   380.08         10.9192
   380.22         11.1256
   380.36         11.3328
   380.50         11.5117
   380.64         11.6361
   380.78         11.6838
   380.92         11.6385
   381.06         11.4938
   381.20         11.2540
   381.34         10.9322
   381.48         10.5467
   381.62         10.1187
   381.76         9.6708
   381.90         9.2218
   382.04         8.7851
   382.18         8.3715
   382.32         7.9913
   382.46         7.6523
   382.60         7.3564
   382.74         7.1003
   382.88         6.8816
   383.02         6.7054
   383.16         6.5850
   383.30         6.5360
   383.44         6.5696
   383.58         6.6904
   383.72         6.8965
   383.86         7.1784
   384.00         7.5204
   384.14         7.9024
   384.28         8.3024
   384.42         8.6962
   384.56         9.0572
   384.70         9.3568
   384.84         9.5727
   384.98         9.6969
   385.12         9.7364
   385.26         9.7094
   385.40         9.6412
   385.54         9.5598
   385.68         9.4902
   385.82         9.4470
   385.96         9.4324
   386.10         9.4406
   386.24         9.4653
   386.38         9.5025
   386.52         9.5481
   386.66         9.5948
   386.80         9.6343
   386.94         9.6595
   387.08         9.6648
   387.22         9.6476
   387.36         9.6100
   387.50         9.5586
   387.64         9.5013
   387.78         9.4439
   387.92         9.3912
   388.06         9.3480
   388.20         9.3206
   388.34         9.3159
   388.48         9.3413
   388.62         9.4053
   388.76         9.5158
   388.90         9.6762
   389.04         9.8794
   389.18         10.1085
   389.32         10.3440
   389.46         10.5692
   389.60         10.7723
   389.74         10.9476
   389.88         11.0954
   390.02         11.2204
   390.16         11.3305
   390.30         11.4362
   390.44         11.5485
   390.58         11.6730
   390.72         11.8061
   390.86         11.9354
   391.00         12.0428
   391.14         12.1101
   391.28         12.1210
   391.42         12.0617
   391.56         11.9206
   391.70         11.6890
   391.84         11.3635
   391.98         10.9469
   392.12         10.4474
   392.26         9.8794
   392.40         9.2627
   392.54         8.6216
   392.68         7.9859
   392.82         7.3894
   392.96         6.8663
   393.10         6.4455
   393.24         6.1499
   393.38         5.9964
   393.52         5.9968
   393.66         6.1543
   393.80         6.4609
   393.94         6.8969
   394.08         7.4318
   394.22         8.0296
   394.36         8.6533
   394.50         9.2683
   394.64         9.8438
   394.78         10.3543
   394.92         10.7793
   395.06         11.1020
   395.20         11.3096
   395.34         11.3919
   395.48         11.3398
   395.62         11.1467
   395.76         10.8142
   395.90         10.3588
   396.04         9.8131
   396.18         9.2222
   396.32         8.6384
   396.46         8.1174
   396.60         7.7126
   396.74         7.4692
   396.88         7.4193
   397.02         7.5765
   397.16         7.9340
   397.30         8.4650
   397.44         9.1281
   397.58         9.8745
   397.72         10.6535
   397.86         11.4191
   398.00         12.1325
   398.14         12.7654
   398.28         13.3029
   398.42         13.7425
   398.56         14.0917
   398.70         14.3650
   398.84         14.5806
   398.98         14.7569
   399.12         14.9082
   399.26         15.0417
   399.40         15.1577
   399.54         15.2548
   399.68         15.3337
   399.82         15.3980
   399.96         15.4537
   400.10         15.5087
   400.24         15.5702
   400.38         15.6431
   400.52         15.7289
   400.66         15.8272
   400.80         15.9349
   400.94         16.0486
   401.08         16.1648
   401.22         16.2806
   401.36         16.3940
   401.50         16.5037
   401.64         16.6062
   401.78         16.6931
   401.92         16.7524
   402.06         16.7732
   402.20         16.7514
   402.34         16.6905
   402.48         16.5993
   402.62         16.4902
   402.76         16.3772
   402.90         16.2726
   403.04         16.1844
   403.18         16.1146
   403.32         16.0581
   403.46         16.0069
   403.60         15.9567
   403.74         15.9093
   403.88         15.8694
   404.02         15.8417
   404.16         15.8274
   404.30         15.8214
   404.44         15.8162
   404.58         15.8074
   404.72         15.7962
   404.86         15.7888
   405.00         15.7892
   405.14         15.7927
   405.28         15.7877
   405.42         15.7622
   405.56         15.7092
   405.70         15.6290
   405.84         15.5269
   405.98         15.4140
   406.12         15.3092
   406.26         15.2332
   406.40         15.1974
   406.54         15.2007
   406.68         15.2348
   406.82         15.2911
   406.96         15.3646
   407.10         15.4528
   407.24         15.5543
   407.38         15.6681
   407.52         15.7942
   407.66         15.9336
   407.80         16.0882
   407.94         16.2609
   408.08         16.4528
   408.22         16.6594
   408.36         16.8685
   408.50         17.0623
   408.64         17.2210
   408.78         17.3243
   408.92         17.3520
   409.06         17.2887
   409.20         17.1332
   409.34         16.9004
   409.48         16.6159
   409.62         16.3102
   409.76         16.0139
   409.90         15.7567
   410.04         15.5658
   410.18         15.4634
   410.32         15.4628
   410.46         15.5644
   410.60         15.7563
   410.74         16.0178
   410.88         16.3233
   411.02         16.6441
   411.16         16.9517
   411.30         17.2213
   411.44         17.4358
   411.58         17.5873
   411.72         17.6770
   411.86         17.7112
   412.00         17.6965
   412.14         17.6387
   412.28         17.5452
   412.42         17.4279
   412.56         17.3026
   412.70         17.1873
   412.84         17.0967
   412.98         17.0373
   413.12         17.0054
   413.26         16.9923
   413.40         16.9914
   413.54         16.9990
   413.68         17.0116
   413.82         17.0251
   413.96         17.0361
   414.10         17.0414
   414.24         17.0373
   414.38         17.0201
   414.52         16.9888
   414.66         16.9465
   414.80         16.9014
   414.94         16.8662
   415.08         16.8531
   415.22         16.8696
   415.36         16.9163
   415.50         16.9860
   415.64         17.0689
   415.78         17.1578
   415.92         17.2482
   416.06         17.3343
   416.20         17.4058
   416.34         17.4503
   416.48         17.4584
   416.62         17.4247
   416.76         17.3488
   416.90         17.2357
   417.04         17.0955
   417.18         16.9417
   417.32         16.7890
   417.46         16.6496
   417.60         16.5308
   417.74         16.4353
   417.88         16.3632
   418.02         16.3131
   418.16         16.2841
   418.30         16.2754
   418.44         16.2824
   418.58         16.2956
   418.72         16.3047
   418.86         16.3032
   419.00         16.2889
   419.14         16.2625
   419.28         16.2277
   419.42         16.1913
   419.56         16.1606
   419.70         16.1429
   419.84         16.1466
   419.98         16.1798
   420.12         16.2487
   420.26         16.3561
   420.40         16.4994
   420.54         16.6698
   420.68         16.8543
   420.82         17.0375
   420.96         17.2036
   421.10         17.3356
   421.24         17.4165
   421.38         17.4298
   421.52         17.3632
   421.66         17.2150
   421.80         16.9985
   421.94         16.7381
   422.08         16.4613
   422.22         16.1925
   422.36         15.9520
   422.50         15.7538
   422.64         15.6060
   422.78         15.5121
   422.92         15.4721
   423.06         15.4845
   423.20         15.5469
   423.34         15.6543
   423.48         15.7952
   423.62         15.9503
   423.76         16.0944
   423.90         16.2042
   424.04         16.2667
   424.18         16.2827
   424.32         16.2627
   424.46         16.2192
   424.60         16.1610
   424.74         16.0907
   424.88         16.0074
   425.02         15.9127
   425.16         15.8147
   425.30         15.7279
   425.44         15.6670
   425.58         15.6417
   425.72         15.6520
   425.86         15.6873
   426.00         15.7280
   426.14         15.7514
   426.28         15.7395
   426.42         15.6859
   426.56         15.5968
   426.70         15.4875
   426.84         15.3737
   426.98         15.2682
   427.12         15.1812
   427.26         15.1193
   427.40         15.0849
   427.54         15.0793
   427.68         15.1031
   427.82         15.1518
   427.96         15.2140
   428.10         15.2731
   428.24         15.3125
   428.38         15.3179
   428.52         15.2791
   428.66         15.1909
   428.80         15.0529
   428.94         14.8683
   429.08         14.6429
   429.22         14.3842
   429.36         14.0983
   429.50         13.7898
   429.64         13.4632
   429.78         13.1251
   429.92         12.7852
   430.06         12.4585
   430.20         12.1658
   430.34         11.9337
   430.48         11.7933
   430.62         11.7750
   430.76         11.9006
   430.90         12.1777
   431.04         12.5942
   431.18         13.1175
   431.32         13.6994
   431.46         14.2866
   431.60         14.8344
   431.74         15.3135
   431.88         15.7076
   432.02         16.0090
   432.16         16.2191
   432.30         16.3485
   432.44         16.4152
   432.58         16.4399
   432.72         16.4394
   432.86         16.4237
   433.00         16.3966
   433.14         16.3580
   433.28         16.3055
   433.42         16.2366
   433.56         16.1511
   433.70         16.0527
   433.84         15.9498
   433.98         15.8564
   434.12         15.7907
   434.26         15.7729
   434.40         15.8172
   434.54         15.9261
   434.68         16.0912
   434.82         16.2963
   434.96         16.5222
   435.10         16.7506
   435.24         16.9689
   435.38         17.1716
   435.52         17.3600
   435.66         17.5399
   435.80         17.7178
   435.94         17.8959
   436.08         18.0688
   436.22         18.2232
   436.36         18.3421
   436.50         18.4097
   436.64         18.4181
   436.78         18.3690
   436.92         18.2704
   437.06         18.1286
   437.20         17.9441
   437.34         17.7158
   437.48         17.4498
   437.62         17.1609
   437.76         16.8685
   437.90         16.5916
   438.04         16.3454
   438.18         16.1422
   438.32         15.9922
   438.46         15.9037
   438.60         15.8819
   438.74         15.9267
   438.88         16.0323
   439.02         16.1892
   439.16         16.3837
   439.30         16.5949
   439.44         16.7961
   439.58         16.9627
   439.72         17.0785
   439.86         17.1428
   440.00         17.1710
   440.14         17.1864
   440.28         17.2074
   440.42         17.2426
   440.56         17.2954
   440.70         17.3686
   440.84         17.4653
   440.98         17.5862
   441.12         17.7279
   441.26         17.8821
   441.40         18.0377
   441.54         18.1839
   441.68         18.3123
   441.82         18.4171
   441.96         18.4962
   442.10         18.5522
   442.24         18.5900
   442.38         18.6136
   442.52         18.6260
   442.66         18.6307
   442.80         18.6312
   442.94         18.6292
   443.08         18.6274
   443.22         18.6316
   443.36         18.6488
   443.50         18.6834
   443.64         18.7339
   443.78         18.7966
   443.92         18.8679
   444.06         18.9435
   444.20         19.0146
   444.34         19.0684
   444.48         19.0912
   444.62         19.0729
   444.76         19.0083
   444.90         18.8980
   445.04         18.7498
   445.18         18.5793
   445.32         18.4064
   445.46         18.2487
   445.60         18.1195
   445.74         18.0293
   445.88         17.9865
   446.02         17.9964
   446.16         18.0611
   446.30         18.1784
   446.44         18.3429
   446.58         18.5448
   446.72         18.7687
   446.86         18.9946
   447.00         19.2031
   447.14         19.3805
   447.28         19.5206
   447.42         19.6245
   447.56         19.6976
   447.70         19.7468
   447.84         19.7782
   447.98         19.7955
   448.12         19.8010
   448.26         19.7963
   448.40         19.7834
   448.54         19.7662
   448.68         19.7521
   448.82         19.7486
   448.96         19.7598
   449.10         19.7865
   449.24         19.8295
   449.38         19.8894
   449.52         19.9680
   449.66         20.0692
   449.80         20.1967
   449.94         20.3498
   450.08         20.5197
   450.22         20.6917
   450.36         20.8491
   450.50         20.9781
   450.64         21.0690
   450.78         21.1167
   450.92         21.1198
   451.06         21.0811
   451.20         21.0068
   451.34         20.9029
   451.48         20.7716
   451.62         20.6128
   451.76         20.4291
   451.90         20.2254
   452.04         20.0081
   452.18         19.7837
   452.32         19.5578
   452.46         19.3378
   452.60         19.1356
   452.74         18.9660
   452.88         18.8433
   453.02         18.7774
   453.16         18.7715
   453.30         18.8216
   453.44         18.9177
   453.58         19.0439
   453.72         19.1801
   453.86         19.3064
   454.00         19.4058
   454.14         19.4665
   454.28         19.4858
   454.42         19.4711
   454.56         19.4356
   454.70         19.3963
   454.84         19.3709
   454.98         19.3751
   455.12         19.4198
   455.26         19.5081
   455.40         19.6339
   455.54         19.7858
   455.68         19.9516
   455.82         20.1197
   455.96         20.2784
   456.10         20.4182
   456.24         20.5343
   456.38         20.6267
   456.52         20.6981
   456.66         20.7500
   456.80         20.7816
   456.94         20.7924
   457.08         20.7826
   457.22         20.7522
   457.36         20.6994
   457.50         20.6214
   457.64         20.5175
   457.78         20.3913
   457.92         20.2517
   458.06         20.1098
