# File HD227018
# Wavelength [nm]    Normalized Amplitude
   349.70         452.5886
   349.84         453.3126
   349.98         453.5904
   350.12         453.4182
   350.26         452.8375
   350.40         451.9638
   350.54         450.9983
   350.68         450.1472
   350.82         449.5291
   350.96         449.1661
   351.10         449.0460
   351.24         449.1661
   351.38         449.5291
   351.52         450.1472
   351.66         450.9983
   351.80         451.9638
   351.94         452.8375
   352.08         453.4182
   352.22         453.5904
   352.36         453.3126
   352.50         452.5886
   352.64         451.4247
   352.78         449.8378
   352.92         447.8972
   353.06         445.7362
   353.20         443.5209
   353.34         441.3976
   353.48         439.4948
   353.62         437.9235
   353.76         436.7533
   353.90         435.9718
   354.04         435.4836
   354.18         435.1424
   354.32         434.7879
   354.46         434.2800
   354.60         433.4933
   354.74         432.3243
   354.88         430.7088
   355.02         428.6357
   355.16         426.1596
   355.30         423.3888
   355.44         420.4709
   355.58         417.6005
   355.72         414.9967
   355.86         412.8245
   356.00         411.1458
   356.14         409.9442
   356.28         409.1898
   356.42         408.8504
   356.56         408.8686
   356.70         409.1418
   356.84         409.5037
   356.98         409.7473
   357.12         409.6853
   357.26         409.1935
   357.40         408.2435
   357.54         406.9094
   357.68         405.3165
   357.82         403.6013
   357.96         401.8995
   358.10         400.3205
   358.24         398.9290
   358.38         397.7541
   358.52         396.8113
   358.66         396.0999
   358.80         395.5857
   358.94         395.2036
   359.08         394.8745
   359.22         394.5320
   359.36         394.1372
   359.50         393.6690
   359.64         393.1289
   359.78         392.5703
   359.92         392.0744
   360.06         391.7023
   360.20         391.4842
   360.34         391.3979
   360.48         391.3861
   360.62         391.3869
   360.76         391.3279
   360.90         391.1383
   361.04         390.7929
   361.18         390.3135
   361.32         389.7231
   361.46         389.0250
   361.60         388.2467
   361.74         387.4552
   361.88         386.6874
   362.02         385.9175
   362.16         385.0981
   362.30         384.2250
   362.44         383.3591
   362.58         382.5502
   362.72         381.8008
   362.86         381.1069
   363.00         380.4767
   363.14         379.9407
   363.28         379.5307
   363.42         379.2501
   363.56         379.0897
   363.70         379.0242
   363.84         379.0001
   363.98         378.9413
   364.12         378.7723
   364.26         378.4635
   364.40         378.0382
   364.54         377.5464
   364.68         377.0582
   364.82         376.6416
   364.96         376.3301
   365.10         376.1008
   365.24         375.8739
   365.38         375.5732
   365.52         375.1385
   365.66         374.5124
   365.80         373.6890
   365.94         372.7224
   366.08         371.6857
   366.22         370.6236
   366.36         369.5177
   366.50         368.3289
   366.64         367.0396
   366.78         365.6819
   366.92         364.3418
   367.06         363.1116
   367.20         362.0568
   367.34         361.1787
   367.48         360.4246
   367.62         359.7361
   367.76         359.0732
   367.90         358.4161
   368.04         357.7503
   368.18         357.0522
   368.32         356.3242
   368.46         355.5954
   368.60         354.8589
   368.74         354.0727
   368.88         353.1775
   369.02         352.1222
   369.16         350.9124
   369.30         349.6142
   369.44         348.3278
   369.58         347.1327
   369.72         346.0352
   369.86         344.9881
   370.00         343.9390
   370.14         342.8647
   370.28         341.7683
   370.42         340.6872
   370.56         339.6873
   370.70         338.8209
   370.84         338.1234
   370.98         337.6276
   371.12         337.3519
   371.26         337.3007
   371.40         337.4822
   371.54         337.8894
   371.68         338.5053
   371.82         339.3395
   371.96         340.4077
   372.10         341.6834
   372.24         343.0564
   372.38         344.3321
   372.52         345.3287
   372.66         345.9587
   372.80         346.2253
   372.94         346.1950
   373.08         345.9576
   373.22         345.5896
   373.36         345.1328
   373.50         344.6164
   373.64         344.0638
   373.78         343.4711
   373.92         342.8212
   374.06         342.0942
   374.20         341.2381
   374.34         340.1655
   374.48         338.7643
   374.62         336.9138
   374.76         334.5485
   374.90         331.7219
   375.04         328.6393
   375.18         325.6131
   375.32         322.9591
   375.46         320.9037
   375.60         319.5283
   375.74         318.7672
   375.88         318.4531
   376.02         318.3741
   376.16         318.3600
   376.30         318.3109
   376.44         318.2174
   376.58         318.1822
   376.72         318.3401
   376.86         318.7873
   377.00         319.5851
   377.14         320.7730
   377.28         322.3840
   377.42         324.4439
   377.56         326.9287
   377.70         329.7293
   377.84         332.6512
   377.98         335.4447
   378.12         337.8222
   378.26         339.4984
   378.40         340.2350
   378.54         339.8775
   378.68         338.4107
   378.82         335.9874
   378.96         332.9066
   379.10         329.5712
   379.24         326.3891
   379.38         323.6745
   379.52         321.6578
   379.66         320.4989
   379.80         320.2668
   379.94         320.9586
   380.08         322.5161
   380.22         324.8086
   380.36         327.6291
   380.50         330.7201
   380.64         333.7950
   380.78         336.5600
   380.92         338.7688
   381.06         340.2786
   381.20         341.0947
   381.34         341.3661
   381.48         341.2999
   381.62         341.0588
   381.76         340.6996
   381.90         340.1662
   382.04         339.3387
   382.18         338.0648
   382.32         336.1647
   382.46         333.5018
   382.60         330.0735
   382.74         326.0206
   382.88         321.5837
   383.02         317.0681
   383.16         312.8037
   383.30         309.1029
   383.44         306.2279
   383.58         304.3755
   383.72         303.6645
   383.86         304.1166
   384.00         305.6302
   384.14         307.9694
   384.28         310.8177
   384.42         313.8486
   384.56         316.7503
   384.70         319.2314
   384.84         321.0601
   384.98         322.1452
   385.12         322.5641
   385.26         322.4939
   385.40         322.1157
   385.54         321.5549
   385.68         320.8761
   385.82         320.1101
   385.96         319.2788
   386.10         318.4035
   386.24         317.5091
   386.38         316.6286
   386.52         315.7927
   386.66         315.0027
   386.80         314.2356
   386.94         313.4725
   387.08         312.6888
   387.22         311.8193
   387.36         310.7580
   387.50         309.3930
   387.64         307.6168
   387.78         305.3348
   387.92         302.4993
   388.06         299.1554
   388.20         295.4647
   388.34         291.6880
   388.48         288.1370
   388.62         285.1200
   388.76         282.8917
   388.90         281.6216
   389.04         281.3991
   389.18         282.2293
   389.32         284.0155
   389.46         286.5705
   389.60         289.6440
   389.74         292.9388
   389.88         296.1422
   390.02         298.9676
   390.16         301.1990
   390.30         302.7353
   390.44         303.6093
   390.58         303.9458
   390.72         303.8950
   390.86         303.5898
   391.00         303.1262
   391.14         302.5681
   391.28         301.9648
   391.42         301.3560
   391.56         300.7676
   391.70         300.2137
   391.84         299.6803
   391.98         299.1098
   392.12         298.4153
   392.26         297.5255
   392.40         296.4272
   392.54         295.1820
   392.68         293.9022
   392.82         292.7254
   392.96         291.7989
   393.10         291.2357
   393.24         291.0828
   393.38         291.3150
   393.52         291.8412
   393.66         292.5371
   393.80         293.2687
   393.94         293.9063
   394.08         294.3387
   394.22         294.4814
   394.36         294.2927
   394.50         293.7684
   394.64         292.9318
   394.78         291.8562
   394.92         290.6568
   395.06         289.4187
   395.20         288.1412
   395.34         286.7305
   395.48         285.0293
   395.62         282.8502
   395.76         280.0011
   395.90         276.3531
   396.04         271.9207
   396.18         266.9012
   396.32         261.6334
   396.46         256.5131
   396.60         251.9401
   396.74         248.2761
   396.88         245.8030
   397.02         244.6799
   397.16         244.9299
   397.30         246.4555
   397.44         249.0469
   397.58         252.4047
   397.72         256.1875
   397.86         260.0577
   398.00         263.7084
   398.14         266.9006
   398.28         269.4886
   398.42         271.4387
   398.56         272.8317
   398.70         273.8024
   398.84         274.4563
   398.98         274.8388
   399.12         274.9797
   399.26         274.9229
   399.40         274.7209
   399.54         274.4239
   399.68         274.0626
   399.82         273.6556
   399.96         273.2037
   400.10         272.6971
   400.24         272.1353
   400.38         271.5189
   400.52         270.8426
   400.66         270.0990
   400.80         269.3012
   400.94         268.4861
   401.08         267.6768
   401.22         266.8651
   401.36         266.0182
   401.50         265.0941
   401.64         264.0678
   401.78         262.9446
   401.92         261.7512
   402.06         260.5190
   402.20         259.2783
   402.34         258.0684
   402.48         256.9421
   402.62         255.9599
   402.76         255.1959
   402.90         254.7300
   403.04         254.6119
   403.18         254.8409
   403.32         255.3771
   403.46         256.1530
   403.60         257.0607
   403.74         257.9590
   403.88         258.7319
   404.02         259.3196
   404.16         259.7096
   404.30         259.9213
   404.44         259.9838
   404.58         259.9135
   404.72         259.7132
   404.86         259.3890
   405.00         258.9592
   405.14         258.4518
   405.28         257.9027
   405.42         257.3394
   405.56         256.7654
   405.70         256.1514
   405.84         255.4531
   405.98         254.6479
   406.12         253.7422
   406.26         252.7595
   406.40         251.7276
   406.54         250.6725
   406.68         249.6235
   406.82         248.6141
   406.96         247.6791
   407.10         246.8663
   407.24         246.2223
   407.38         245.7679
   407.52         245.4873
   407.66         245.3270
   407.80         245.2106
   407.94         245.0504
   408.08         244.7550
   408.22         244.2536
   408.36         243.5041
   408.50         242.4788
   408.64         241.1459
   408.78         239.4451
   408.92         237.2801
   409.06         234.5571
   409.20         231.2608
   409.34         227.5080
   409.48         223.5210
   409.62         219.5740
   409.76         215.9550
   409.90         212.9329
   410.04         210.7472
   410.18         209.5871
   410.32         209.5589
   410.46         210.6612
   410.60         212.7732
   410.74         215.6801
   410.88         219.1023
   411.02         222.7105
   411.16         226.1584
   411.30         229.1385
   411.44         231.4400
   411.58         232.9798
   411.72         233.8093
   411.86         234.0902
   412.00         234.0241
   412.14         233.7808
   412.28         233.4893
   412.42         233.2485
   412.56         233.1305
   412.70         233.1744
   412.84         233.3715
   412.98         233.6682
   413.12         233.9894
   413.26         234.2704
   413.40         234.4656
   413.54         234.5341
   413.68         234.4418
   413.82         234.1778
   413.96         233.7445
   414.10         233.1519
   414.24         232.4205
   414.38         231.5893
   414.52         230.7173
   414.66         229.8664
   414.80         229.0931
   414.94         228.4441
   415.08         227.9369
   415.22         227.5611
   415.36         227.2900
   415.50         227.0862
   415.64         226.9133
   415.78         226.7475
   415.92         226.5811
   416.06         226.4078
   416.20         226.2137
   416.34         225.9957
   416.48         225.7610
   416.62         225.5118
   416.76         225.2514
   416.90         224.9844
   417.04         224.7115
   417.18         224.4249
   417.32         224.1043
   417.46         223.7248
   417.60         223.2643
   417.74         222.7141
   417.88         222.0908
   418.02         221.4185
   418.16         220.7125
   418.30         219.9806
   418.44         219.2191
   418.58         218.4045
   418.72         217.4953
   418.86         216.4568
   419.00         215.2845
   419.14         213.9929
   419.28         212.6148
   419.42         211.2150
   419.56         209.8788
   419.70         208.6996
   419.84         207.7610
   419.98         207.1230
   420.12         206.8220
   420.26         206.8702
   420.40         207.2473
   420.54         207.8843
   420.68         208.6673
   420.82         209.4744
   420.96         210.2061
   421.10         210.7888
   421.24         211.1793
   421.38         211.3699
   421.52         211.3861
   421.66         211.2712
   421.80         211.0698
   421.94         210.8256
   422.08         210.5814
   422.22         210.3678
   422.36         210.2064
   422.50         210.1136
   422.64         210.1036
   422.78         210.1806
   422.92         210.3332
   423.06         210.5447
   423.20         210.8003
   423.34         211.0926
   423.48         211.4240
   423.62         211.7914
   423.76         212.1698
   423.90         212.5198
   424.04         212.7988
   424.18         212.9617
   424.32         212.9686
   424.46         212.7943
   424.60         212.4328
   424.74         211.8990
   424.88         211.2295
   425.02         210.4822
   425.16         209.7227
   425.30         209.0070
   425.44         208.3712
   425.58         207.8397
   425.72         207.4308
   425.86         207.1393
   426.00         206.9294
   426.14         206.7477
   426.28         206.5398
   426.42         206.2670
   426.56         205.9185
   426.70         205.4991
   426.84         205.0179
   426.98         204.4999
   427.12         203.9901
   427.26         203.5392
   427.40         203.1936
   427.54         202.9839
   427.68         202.9014
   427.82         202.9057
   427.96         202.9514
   428.10         202.9946
   428.24         203.0055
   428.38         202.9760
   428.52         202.9131
   428.66         202.8337
   428.80         202.7589
   428.94         202.7060
   429.08         202.6831
   429.22         202.6816
   429.36         202.6734
   429.50         202.6206
   429.64         202.4957
   429.78         202.2871
   429.92         201.9836
   430.06         201.5811
   430.20         201.0924
   430.34         200.5381
   430.48         199.9543
   430.62         199.3863
   430.76         198.8745
   430.90         198.4540
   431.04         198.1456
   431.18         197.9466
   431.32         197.8338
   431.46         197.7814
   431.60         197.7701
   431.74         197.7750
   431.88         197.7528
   432.02         197.6544
   432.16         197.4390
   432.30         197.0731
   432.44         196.5164
   432.58         195.7078
   432.72         194.5600
   432.86         192.9661
   433.00         190.8395
   433.14         188.1783
   433.28         185.0941
   433.42         181.7920
   433.56         178.5242
   433.70         175.5528
   433.84         173.1311
   433.98         171.4725
   434.12         170.7220
   434.26         170.9436
   434.40         172.1146
   434.54         174.1287
   434.68         176.8051
   434.82         179.9059
   434.96         183.1578
   435.10         186.2836
   435.24         189.0323
   435.38         191.2158
   435.52         192.7528
   435.66         193.6765
   435.80         194.0962
   435.94         194.1442
   436.08         193.9462
   436.22         193.6097
   436.36         193.2207
   436.50         192.8417
   436.64         192.5065
   436.78         192.2280
   436.92         192.0074
   437.06         191.8331
   437.20         191.6866
   437.34         191.5529
   437.48         191.4209
   437.62         191.2646
   437.76         191.0435
   437.90         190.7266
   438.04         190.3087
   438.18         189.8158
   438.32         189.2969
   438.46         188.8050
   438.60         188.3880
   438.74         188.0825
   438.88         187.8976
   439.02         187.8143
   439.16         187.8047
   439.30         187.8412
   439.44         187.8932
   439.58         187.9322
   439.72         187.9323
   439.86         187.8651
   440.00         187.7017
   440.14         187.4219
   440.28         187.0196
   440.42         186.5158
   440.56         185.9514
   440.70         185.3575
   440.84         184.7561
   440.98         184.1631
   441.12         183.5810
   441.26         183.0043
   441.40         182.4200
   441.54         181.8044
   441.68         181.1272
   441.82         180.3582
   441.96         179.4823
   442.10         178.5138
   442.24         177.4902
   442.38         176.4602
   442.52         175.4850
   442.66         174.6265
   442.80         173.9227
   442.94         173.3849
   443.08         173.0155
   443.22         172.8116
   443.36         172.7616
   443.50         172.8464
   443.64         173.0325
   443.78         173.2746
   443.92         173.5306
   444.06         173.7690
   444.20         173.9720
   444.34         174.1332
   444.48         174.2525
   444.62         174.3385
   444.76         174.4034
   444.90         174.4495
   445.04         174.4701
   445.18         174.4502
   445.32         174.3642
   445.46         174.1861
   445.60         173.9070
   445.74         173.5279
   445.88         173.0345
   446.02         172.3952
   446.16         171.5896
   446.30         170.6354
   446.44         169.5921
   446.58         168.5423
   446.72         167.5698
   446.86         166.7373
   447.00         166.0724
   447.14         165.5767
   447.28         165.2479
   447.42         165.0904
   447.56         165.1042
   447.70         165.2722
   447.84         165.5589
   447.98         165.9221
   448.12         166.3140
   448.26         166.6771
   448.40         166.9535
   448.54         167.1010
   448.68         167.1064
   448.82         166.9880
   448.96         166.7796
   449.10         166.5093
   449.24         166.1979
   449.38         165.8640
   449.52         165.5295
   449.66         165.2273
   449.80         164.9976
   449.94         164.8760
   450.08         164.8808
   450.22         165.0026
   450.36         165.2014
   450.50         165.4243
   450.64         165.6255
   450.78         165.7611
   450.92         165.7918
   451.06         165.7051
   451.20         165.5071
   451.34         165.2102
   451.48         164.8390
   451.62         164.4233
   451.76         163.9904
   451.90         163.5665
   452.04         163.1752
   452.18         162.8329
   452.32         162.5422
   452.46         162.2850
   452.60         162.0303
   452.74         161.7425
   452.88         161.3776
