# File HD221741
# Wavelength [nm]    Normalized Amplitude
   349.70         14.5513
   349.84         14.5231
   349.98         14.5055
   350.12         14.5038
   350.26         14.5186
   350.40         14.5468
   350.54         14.5825
   350.68         14.6179
   350.82         14.6474
   350.96         14.6680
   351.10         14.6757
   351.24         14.6680
   351.38         14.6474
   351.52         14.6179
   351.66         14.5825
   351.80         14.5468
   351.94         14.5186
   352.08         14.5038
   352.22         14.5055
   352.36         14.5231
   352.50         14.5513
   352.64         14.5824
   352.78         14.6075
   352.92         14.6178
   353.06         14.6081
   353.20         14.5790
   353.34         14.5366
   353.48         14.4894
   353.62         14.4440
   353.76         14.4051
   353.90         14.3789
   354.04         14.3705
   354.18         14.3802
   354.32         14.4050
   354.46         14.4410
   354.60         14.4819
   354.74         14.5225
   354.88         14.5616
   355.02         14.5985
   355.16         14.6316
   355.30         14.6587
   355.44         14.6776
   355.58         14.6894
   355.72         14.6990
   355.86         14.7099
   356.00         14.7207
   356.14         14.7270
   356.28         14.7247
   356.42         14.7100
   356.56         14.6773
   356.70         14.6214
   356.84         14.5419
   356.98         14.4438
   357.12         14.3342
   357.26         14.2203
   357.40         14.1112
   357.54         14.0142
   357.68         13.9319
   357.82         13.8662
   357.96         13.8186
   358.10         13.7902
   358.24         13.7812
   358.38         13.7890
   358.52         13.8082
   358.66         13.8335
   358.80         13.8610
   358.94         13.8865
   359.08         13.9066
   359.22         13.9213
   359.36         13.9355
   359.50         13.9546
   359.64         13.9830
   359.78         14.0222
   359.92         14.0716
   360.06         14.1282
   360.20         14.1867
   360.34         14.2424
   360.48         14.2933
   360.62         14.3382
   360.76         14.3747
   360.90         14.3995
   361.04         14.4103
   361.18         14.4081
   361.32         14.3964
   361.46         14.3788
   361.60         14.3589
   361.74         14.3403
   361.88         14.3251
   362.02         14.3133
   362.16         14.3047
   362.30         14.2996
   362.44         14.2979
   362.58         14.2998
   362.72         14.3066
   362.86         14.3203
   363.00         14.3423
   363.14         14.3722
   363.28         14.4067
   363.42         14.4402
   363.56         14.4702
   363.70         14.4969
   363.84         14.5213
   363.98         14.5414
   364.12         14.5525
   364.26         14.5513
   364.40         14.5379
   364.54         14.5148
   364.68         14.4877
   364.82         14.4626
   364.96         14.4445
   365.10         14.4371
   365.24         14.4422
   365.38         14.4589
   365.52         14.4850
   365.66         14.5180
   365.80         14.5536
   365.94         14.5849
   366.08         14.6058
   366.22         14.6131
   366.36         14.6059
   366.50         14.5857
   366.64         14.5556
   366.78         14.5197
   366.92         14.4840
   367.06         14.4554
   367.20         14.4391
   367.34         14.4354
   367.48         14.4396
   367.62         14.4461
   367.76         14.4505
   367.90         14.4491
   368.04         14.4400
   368.18         14.4233
   368.32         14.4005
   368.46         14.3751
   368.60         14.3538
   368.74         14.3460
   368.88         14.3588
   369.02         14.3933
   369.16         14.4436
   369.30         14.4999
   369.44         14.5528
   369.58         14.5961
   369.72         14.6241
   369.86         14.6291
   370.00         14.6036
   370.14         14.5490
   370.28         14.4789
   370.42         14.4147
   370.56         14.3777
   370.70         14.3801
   370.84         14.4209
   370.98         14.4907
   371.12         14.5794
   371.26         14.6787
   371.40         14.7839
   371.54         14.8950
   371.68         15.0161
   371.82         15.1509
   371.96         15.2984
   372.10         15.4507
   372.24         15.5927
   372.38         15.7076
   372.52         15.7880
   372.66         15.8414
   372.80         15.8890
   372.94         15.9566
   373.08         16.0634
   373.22         16.2160
   373.36         16.4072
   373.50         16.6207
   373.64         16.8366
   373.78         17.0323
   373.92         17.1862
   374.06         17.2849
   374.20         17.3276
   374.34         17.3244
   374.48         17.2923
   374.62         17.2546
   374.76         17.2423
   374.90         17.2940
   375.04         17.4486
   375.18         17.7343
   375.32         18.1548
   375.46         18.6830
   375.60         19.2626
   375.74         19.8137
   375.88         20.2499
   376.02         20.5013
   376.16         20.5334
   376.30         20.3564
   376.44         20.0258
   376.58         19.6327
   376.72         19.2840
   376.86         19.0802
   377.00         19.0985
   377.14         19.3872
   377.28         19.9629
   377.42         20.8088
   377.56         21.8763
   377.70         23.0883
   377.84         24.3450
   377.98         25.5337
   378.12         26.5417
   378.26         27.2688
   378.40         27.6391
   378.54         27.6133
   378.68         27.1956
   378.82         26.4344
   378.96         25.4145
   379.10         24.2468
   379.24         23.0546
   379.38         21.9601
   379.52         21.0761
   379.66         20.4993
   379.80         20.3014
   379.94         20.5165
   380.08         21.1380
   380.22         22.1256
   380.36         23.4110
   380.50         24.9045
   380.64         26.5048
   380.78         28.1094
   380.92         29.6240
   381.06         30.9720
   381.20         32.0983
   381.34         32.9682
   381.48         33.5635
   381.62         33.8730
   381.76         33.8879
   381.90         33.6008
   382.04         33.0080
   382.18         32.1134
   382.32         30.9348
   382.46         29.5089
   382.60         27.8957
   382.74         26.1788
   382.88         24.4639
   383.02         22.8696
   383.16         21.5120
   383.30         20.4907
   383.44         19.8795
   383.58         19.7224
   383.72         20.0312
   383.86         20.7841
   384.00         21.9302
   384.14         23.3951
   384.28         25.0875
   384.42         26.9082
   384.56         28.7603
   384.70         30.5596
   384.84         32.2400
   384.98         33.7566
   385.12         35.0855
   385.26         36.2204
   385.40         37.1670
   385.54         37.9392
   385.68         38.5538
   385.82         39.0276
   385.96         39.3737
   386.10         39.5997
   386.24         39.7070
   386.38         39.6916
   386.52         39.5455
   386.66         39.2569
   386.80         38.8122
   386.94         38.2002
   387.08         37.4126
   387.22         36.4437
   387.36         35.2889
   387.50         33.9460
   387.64         32.4224
   387.78         30.7423
   387.92         28.9515
   388.06         27.1177
   388.20         25.3272
   388.34         23.6765
   388.48         22.2594
   388.62         21.1564
   388.76         20.4314
   388.90         20.1294
   389.04         20.2705
   389.18         20.8462
   389.32         21.8190
   389.46         23.1271
   389.60         24.6921
   389.74         26.4271
   389.88         28.2433
   390.02         30.0581
   390.16         31.8037
   390.30         33.4341
   390.44         34.9263
   390.58         36.2745
   390.72         37.4804
   390.86         38.5475
   391.00         39.4784
   391.14         40.2760
   391.28         40.9464
   391.42         41.4960
   391.56         41.9247
   391.70         42.2242
   391.84         42.3732
   391.98         42.3332
   392.12         42.0582
   392.26         41.5189
   392.40         40.7224
   392.54         39.7167
   392.68         38.5833
   392.82         37.4266
   392.96         36.3577
   393.10         35.4749
   393.24         34.8521
   393.38         34.5351
   393.52         34.5396
   393.66         34.8474
   393.80         35.4058
   393.94         36.1342
   394.08         36.9303
   394.22         37.6832
   394.36         38.2892
   394.50         38.6631
   394.64         38.7522
   394.78         38.5462
   394.92         38.0701
   395.06         37.3645
   395.20         36.4623
   395.34         35.3796
   395.48         34.1161
   395.62         32.6624
   395.76         31.0170
   395.90         29.2032
   396.04         27.2754
   396.18         25.3149
   396.32         23.4200
   396.46         21.6980
   396.60         20.2555
   396.74         19.1851
   396.88         18.5574
   397.02         18.4135
   397.16         18.7600
   397.30         19.5679
   397.44         20.7765
   397.58         22.3015
   397.72         24.0468
   397.86         25.9150
   398.00         27.8146
   398.14         29.6657
   398.28         31.4102
   398.42         33.0173
   398.56         34.4766
   398.70         35.7900
   398.84         36.9650
   398.98         38.0094
   399.12         38.9287
   399.26         39.7257
   399.40         40.4034
   399.54         40.9679
   399.68         41.4280
   399.82         41.7943
   399.96         42.0778
   400.10         42.2921
   400.24         42.4521
   400.38         42.5732
   400.52         42.6699
   400.66         42.7523
   400.80         42.8262
   400.94         42.8977
   401.08         42.9722
   401.22         43.0495
   401.36         43.1275
   401.50         43.2032
   401.64         43.2695
   401.78         43.3181
   401.92         43.3457
   402.06         43.3541
   402.20         43.3459
   402.34         43.3225
   402.48         43.2868
   402.62         43.2452
   402.76         43.2055
   402.90         43.1722
   403.04         43.1480
   403.18         43.1346
   403.32         43.1306
   403.46         43.1317
   403.60         43.1340
   403.74         43.1335
   403.88         43.1252
   404.02         43.1054
   404.16         43.0703
   404.30         43.0171
   404.44         42.9464
   404.58         42.8615
   404.72         42.7649
   404.86         42.6572
   405.00         42.5378
   405.14         42.4054
   405.28         42.2571
   405.42         42.0889
   405.56         41.8987
   405.70         41.6897
   405.84         41.4678
   405.98         41.2375
   406.12         41.0033
   406.26         40.7678
   406.40         40.5281
   406.54         40.2753
   406.68         39.9996
   406.82         39.6955
   406.96         39.3622
   407.10         38.9977
   407.24         38.5982
   407.38         38.1591
   407.52         37.6768
   407.66         37.1495
   407.80         36.5758
   407.94         35.9531
   408.08         35.2741
   408.22         34.5270
   408.36         33.6961
   408.50         32.7624
   408.64         31.7064
   408.78         30.5114
   408.92         29.1689
   409.06         27.6885
   409.20         26.1048
   409.34         24.4789
   409.48         22.8914
   409.62         21.4305
   409.76         20.1830
   409.90         19.2278
   410.04         18.6266
   410.18         18.4177
   410.32         18.6107
   410.46         19.1856
   410.60         20.0983
   410.74         21.2861
   410.88         22.6741
   411.02         24.1816
   411.16         25.7290
   411.30         27.2456
   411.44         28.6753
   411.58         29.9823
   411.72         31.1514
   411.86         32.1819
   412.00         33.0811
   412.14         33.8595
   412.28         34.5287
   412.42         35.1029
   412.56         35.6004
   412.70         36.0417
   412.84         36.4476
   412.98         36.8338
   413.12         37.2094
   413.26         37.5786
   413.40         37.9410
   413.54         38.2912
   413.68         38.6205
   413.82         38.9203
   413.96         39.1831
   414.10         39.4026
   414.24         39.5738
   414.38         39.6943
   414.52         39.7646
   414.66         39.7881
   414.80         39.7723
   414.94         39.7275
   415.08         39.6671
   415.22         39.6062
   415.36         39.5556
   415.50         39.5194
   415.64         39.4969
   415.78         39.4838
   415.92         39.4714
   416.06         39.4479
   416.20         39.4008
   416.34         39.3216
   416.48         39.2074
   416.62         39.0594
   416.76         38.8821
   416.90         38.6842
   417.04         38.4771
   417.18         38.2743
   417.32         38.0917
   417.46         37.9442
   417.60         37.8423
   417.74         37.7911
   417.88         37.7907
   418.02         37.8354
   418.16         37.9162
   418.30         38.0222
   418.44         38.1409
   418.58         38.2607
   418.72         38.3740
   418.86         38.4768
   419.00         38.5663
   419.14         38.6384
   419.28         38.6878
   419.42         38.7097
   419.56         38.7021
   419.70         38.6673
   419.84         38.6133
   419.98         38.5512
   420.12         38.4910
   420.26         38.4414
   420.40         38.4102
   420.54         38.4022
   420.68         38.4169
   420.82         38.4488
   420.96         38.4887
   421.10         38.5258
   421.24         38.5482
   421.38         38.5424
   421.52         38.4968
   421.66         38.4075
   421.80         38.2784
   421.94         38.1183
   422.08         37.9371
   422.22         37.7461
   422.36         37.5596
   422.50         37.3924
   422.64         37.2560
   422.78         37.1559
   422.92         37.0923
   423.06         37.0609
   423.20         37.0542
   423.34         37.0618
   423.48         37.0713
   423.62         37.0701
   423.76         37.0470
   423.90         36.9933
   424.04         36.9090
   424.18         36.8049
   424.32         36.6966
   424.46         36.5976
   424.60         36.5153
   424.74         36.4517
   424.88         36.4085
   425.02         36.3887
   425.16         36.3926
   425.30         36.4169
   425.44         36.4566
   425.58         36.5064
   425.72         36.5604
   425.86         36.6107
   426.00         36.6490
   426.14         36.6682
   426.28         36.6649
   426.42         36.6403
   426.56         36.6009
   426.70         36.5553
   426.84         36.5097
   426.98         36.4651
   427.12         36.4201
   427.26         36.3732
   427.40         36.3230
   427.54         36.2690
   427.68         36.2102
   427.82         36.1428
   427.96         36.0620
   428.10         35.9642
   428.24         35.8480
   428.38         35.7136
   428.52         35.5630
   428.66         35.3996
   428.80         35.2272
   428.94         35.0495
   429.08         34.8717
   429.22         34.6997
   429.36         34.5369
   429.50         34.3828
   429.64         34.2364
   429.78         34.0972
   429.92         33.9645
   430.06         33.8340
   430.20         33.6989
   430.34         33.5531
   430.48         33.3941
   430.62         33.2220
   430.76         33.0359
   430.90         32.8309
   431.04         32.6002
   431.18         32.3367
   431.32         32.0343
   431.46         31.6883
   431.60         31.2967
   431.74         30.8584
   431.88         30.3697
   432.02         29.8228
   432.16         29.2076
   432.30         28.5142
   432.44         27.7320
   432.58         26.8488
   432.72         25.8548
   432.86         24.7485
   433.00         23.5434
   433.14         22.2716
   433.28         20.9815
   433.42         19.7320
   433.56         18.5877
   433.70         17.6140
   433.84         16.8693
   433.98         16.3978
   434.12         16.2263
   434.26         16.3651
   434.40         16.8063
   434.54         17.5245
   434.68         18.4787
   434.82         19.6166
   434.96         20.8796
   435.10         22.2086
   435.24         23.5483
   435.38         24.8530
   435.52         26.0897
   435.66         27.2393
   435.80         28.2927
   435.94         29.2443
   436.08         30.0887
   436.22         30.8216
   436.36         31.4425
   436.50         31.9567
   436.64         32.3742
   436.78         32.7086
   436.92         32.9746
   437.06         33.1827
   437.20         33.3377
   437.34         33.4410
   437.48         33.4951
   437.62         33.5047
   437.76         33.4758
   437.90         33.4161
   438.04         33.3343
   438.18         33.2409
   438.32         33.1483
   438.46         33.0700
   438.60         33.0175
   438.74         32.9971
   438.88         33.0106
   439.02         33.0547
   439.16         33.1222
   439.30         33.2029
   439.44         33.2849
   439.58         33.3579
   439.72         33.4127
   439.86         33.4435
   440.00         33.4521
   440.14         33.4445
   440.28         33.4249
   440.42         33.3939
   440.56         33.3513
   440.70         33.2995
   440.84         33.2439
   440.98         33.1907
   441.12         33.1441
   441.26         33.1052
   441.40         33.0739
   441.54         33.0514
   441.68         33.0409
   441.82         33.0462
   441.96         33.0688
   442.10         33.1065
   442.24         33.1536
   442.38         33.2038
   442.52         33.2535
   442.66         33.3013
   442.80         33.3432
   442.94         33.3719
   443.08         33.3804
   443.22         33.3670
   443.36         33.3344
   443.50         33.2861
   443.64         33.2262
   443.78         33.1602
   443.92         33.0944
   444.06         33.0340
   444.20         32.9825
   444.34         32.9419
   444.48         32.9135
   444.62         32.8974
   444.76         32.8938
   444.90         32.9015
   445.04         32.9182
   445.18         32.9395
   445.32         32.9577
   445.46         32.9634
   445.60         32.9498
   445.74         32.9168
   445.88         32.8702
   446.02         32.8175
   446.16         32.7649
   446.30         32.7173
   446.44         32.6781
   446.58         32.6482
   446.72         32.6222
   446.86         32.5901
   447.00         32.5421
   447.14         32.4753
   447.28         32.3938
   447.42         32.3054
   447.56         32.2175
   447.70         32.1362
   447.84         32.0664
   447.98         32.0127
   448.12         31.9806
   448.26         31.9755
   448.40         32.0008
   448.54         32.0556
   448.68         32.1337
   448.82         32.2244
   448.96         32.3157
   449.10         32.3999
   449.24         32.4732
   449.38         32.5344
   449.52         32.5851
   449.66         32.6313
   449.80         32.6806
   449.94         32.7364
   450.08         32.7940
   450.22         32.8447
   450.36         32.8807
   450.50         32.8967
   450.64         32.8885
   450.78         32.8528
   450.92         32.7857
   451.06         32.6852
   451.20         32.5547
   451.34         32.4018
   451.48         32.2355
   451.62         32.0681
   451.76         31.9131
   451.90         31.7768
   452.04         31.6577
   452.18         31.5533
   452.32         31.4645
   452.46         31.3950
   452.60         31.3479
   452.74         31.3224
   452.88         31.3157
   453.02         31.3233
   453.16         31.3385
   453.30         31.3543
   453.44         31.3635
   453.58         31.3580
   453.72         31.3306
   453.86         31.2780
   454.00         31.1990
   454.14         31.0944
   454.28         30.9680
   454.42         30.8249
   454.56         30.6708
   454.70         30.5155
   454.84         30.3732
   454.98         30.2568
   455.12         30.1738
   455.26         30.1249
   455.40         30.1068
   455.54         30.1159
   455.68         30.1479
   455.82         30.1957
   455.96         30.2500
   456.10         30.3029
   456.24         30.3500
   456.38         30.3914
   456.52         30.4298
   456.66         30.4664
   456.80         30.5001
   456.94         30.5268
