# File HD23733
# Wavelength [nm]    Normalized Amplitude
   349.70         17.5332
   349.84         17.5047
   349.98         17.4827
   350.12         17.4679
   350.26         17.4615
   350.40         17.4649
   350.54         17.4779
   350.68         17.4977
   350.82         17.5187
   350.96         17.5346
   351.10         17.5404
   351.24         17.5346
   351.38         17.5187
   351.52         17.4977
   351.66         17.4779
   351.80         17.4649
   351.94         17.4615
   352.08         17.4679
   352.22         17.4827
   352.36         17.5047
   352.50         17.5332
   352.64         17.5682
   352.78         17.6097
   352.92         17.6581
   353.06         17.7131
   353.20         17.7720
   353.34         17.8316
   353.48         17.8908
   353.62         17.9514
   353.76         18.0174
   353.90         18.0926
   354.04         18.1767
   354.18         18.2653
   354.32         18.3509
   354.46         18.4256
   354.60         18.4835
   354.74         18.5208
   354.88         18.5356
   355.02         18.5284
   355.16         18.5009
   355.30         18.4531
   355.44         18.3829
   355.58         18.2887
   355.72         18.1732
   355.86         18.0419
   356.00         17.9003
   356.14         17.7515
   356.28         17.5956
   356.42         17.4303
   356.56         17.2537
   356.70         17.0651
   356.84         16.8666
   356.98         16.6634
   357.12         16.4610
   357.26         16.2635
   357.40         16.0731
   357.54         15.8909
   357.68         15.7180
   357.82         15.5573
   357.96         15.4142
   358.10         15.2968
   358.24         15.2148
   358.38         15.1773
   358.52         15.1888
   358.66         15.2485
   358.80         15.3526
   358.94         15.4961
   359.08         15.6723
   359.22         15.8719
   359.36         16.0803
   359.50         16.2820
   359.64         16.4635
   359.78         16.6138
   359.92         16.7260
   360.06         16.7969
   360.20         16.8261
   360.34         16.8168
   360.48         16.7768
   360.62         16.7136
   360.76         16.6338
   360.90         16.5430
   361.04         16.4478
   361.18         16.3570
   361.32         16.2794
   361.46         16.2234
   361.60         16.1971
   361.74         16.2056
   361.88         16.2484
   362.02         16.3186
   362.16         16.4048
   362.30         16.4922
   362.44         16.5676
   362.58         16.6229
   362.72         16.6557
   362.86         16.6688
   363.00         16.6695
   363.14         16.6669
   363.28         16.6695
   363.42         16.6848
   363.56         16.7183
   363.70         16.7732
   363.84         16.8476
   363.98         16.9351
   364.12         17.0276
   364.26         17.1180
   364.40         17.2018
   364.54         17.2784
   364.68         17.3514
   364.82         17.4289
   364.96         17.5218
   365.10         17.6408
   365.24         17.7913
   365.38         17.9701
   365.52         18.1678
   365.66         18.3688
   365.80         18.5543
   365.94         18.7060
   366.08         18.8116
   366.22         18.8674
   366.36         18.8772
   366.50         18.8487
   366.64         18.7907
   366.78         18.7127
   366.92         18.6238
   367.06         18.5328
   367.20         18.4472
   367.34         18.3705
   367.48         18.3038
   367.62         18.2472
   367.76         18.2008
   367.90         18.1651
   368.04         18.1432
   368.18         18.1388
   368.32         18.1541
   368.46         18.1886
   368.60         18.2403
   368.74         18.3083
   368.88         18.3918
   369.02         18.4866
   369.16         18.5834
   369.30         18.6704
   369.44         18.7374
   369.58         18.7785
   369.72         18.7916
   369.86         18.7757
   370.00         18.7303
   370.14         18.6587
   370.28         18.5712
   370.42         18.4843
   370.56         18.4182
   370.70         18.3889
   370.84         18.4006
   370.98         18.4469
   371.12         18.5172
   371.26         18.6040
   371.40         18.7053
   371.54         18.8196
   371.68         18.9441
   371.82         19.0753
   371.96         19.2086
   372.10         19.3352
   372.24         19.4396
   372.38         19.5034
   372.52         19.5132
   372.66         19.4691
   372.80         19.3893
   372.94         19.3019
   373.08         19.2322
   373.22         19.1961
   373.36         19.1977
   373.50         19.2315
   373.64         19.2875
   373.78         19.3537
   373.92         19.4167
   374.06         19.4656
   374.20         19.4957
   374.34         19.5101
   374.48         19.5148
   374.62         19.5135
   374.76         19.5109
   374.90         19.5211
   375.04         19.5686
   375.18         19.6811
   375.32         19.8773
   375.46         20.1545
   375.60         20.4819
   375.74         20.8080
   375.88         21.0771
   376.02         21.2434
   376.16         21.2832
   376.30         21.2007
   376.44         21.0282
   376.58         20.8223
   376.72         20.6533
   376.86         20.5900
   377.00         20.6852
   377.14         20.9687
   377.28         21.4459
   377.42         22.1015
   377.56         22.9010
   377.70         23.7913
   377.84         24.7054
   377.98         25.5669
   378.12         26.2970
   378.26         26.8253
   378.40         27.0992
   378.54         27.0901
   378.68         26.8004
   378.82         26.2689
   378.96         25.5651
   379.10         24.7768
   379.24         23.9984
   379.38         23.3183
   379.52         22.8095
   379.66         22.5290
   379.80         22.5169
   379.94         22.7875
   380.08         23.3240
   380.22         24.0821
   380.36         24.9997
   380.50         26.0055
   380.64         27.0242
   380.78         27.9837
   380.92         28.8227
   381.06         29.4983
   381.20         29.9894
   381.34         30.2955
   381.48         30.4285
   381.62         30.4002
   381.76         30.2157
   381.90         29.8764
   382.04         29.3818
   382.18         28.7333
   382.32         27.9397
   382.46         27.0174
   382.60         25.9913
   382.74         24.9013
   382.88         23.8101
   383.02         22.7987
   383.16         21.9520
   383.30         21.3435
   383.44         21.0285
   383.58         21.0399
   383.72         21.3848
   383.86         22.0421
   384.00         22.9659
   384.14         24.0923
   384.28         25.3438
   384.42         26.6361
   384.56         27.8893
   384.70         29.0385
   384.84         30.0407
   384.98         30.8788
   385.12         31.5573
   385.26         32.0949
   385.40         32.5166
   385.54         32.8478
   385.68         33.1099
   385.82         33.3154
   385.96         33.4675
   386.10         33.5631
   386.24         33.5970
   386.38         33.5640
   386.52         33.4591
   386.66         33.2781
   386.80         33.0191
   386.94         32.6796
   387.08         32.2594
   387.22         31.7587
   387.36         31.1730
   387.50         30.4926
   387.64         29.7083
   387.78         28.8203
   387.92         27.8438
   388.06         26.8105
   388.20         25.7688
   388.34         24.7797
   388.48         23.9089
   388.62         23.2194
   388.76         22.7663
   388.90         22.5880
   389.04         22.6998
   389.18         23.0904
   389.32         23.7259
   389.46         24.5563
   389.60         25.5219
   389.74         26.5601
   389.88         27.6086
   390.02         28.6123
   390.16         29.5320
   390.30         30.3475
   390.44         31.0543
   390.58         31.6552
   390.72         32.1539
   390.86         32.5554
   391.00         32.8670
   391.14         33.0961
   391.28         33.2469
   391.42         33.3188
   391.56         33.3031
   391.70         33.1810
   391.84         32.9229
   391.98         32.4935
   392.12         31.8621
   392.26         31.0153
   392.40         29.9685
   392.54         28.7710
   392.68         27.5022
   392.82         26.2619
   392.96         25.1575
   393.10         24.2888
   393.24         23.7361
   393.38         23.5518
   393.52         23.7525
   393.66         24.3143
   393.80         25.1735
   393.94         26.2374
   394.08         27.3963
   394.22         28.5362
   394.36         29.5522
   394.50         30.3633
   394.64         30.9241
   394.78         31.2273
   394.92         31.2943
   395.06         31.1584
   395.20         30.8469
   395.34         30.3728
   395.48         29.7355
   395.62         28.9272
   395.76         27.9444
   395.90         26.8008
   396.04         25.5346
   396.18         24.2083
   396.32         22.9035
   396.46         21.7135
   396.60         20.7324
   396.74         20.0411
   396.88         19.6978
   397.02         19.7327
   397.16         20.1459
   397.30         20.9074
   397.44         21.9594
   397.58         23.2214
   397.72         24.6011
   397.86         26.0077
   398.00         27.3626
   398.14         28.6065
   398.28         29.7040
   398.42         30.6432
   398.56         31.4301
   398.70         32.0831
   398.84         32.6256
   398.98         33.0817
   399.12         33.4732
   399.26         33.8159
   399.40         34.1190
   399.54         34.3896
   399.68         34.6352
   399.82         34.8644
   399.96         35.0854
   400.10         35.3034
   400.24         35.5202
   400.38         35.7354
   400.52         35.9474
   400.66         36.1520
   400.80         36.3436
   400.94         36.5172
   401.08         36.6690
   401.22         36.7978
   401.36         36.9074
   401.50         37.0008
   401.64         37.0747
   401.78         37.1193
   401.92         37.1226
   402.06         37.0789
   402.20         36.9930
   402.34         36.8767
   402.48         36.7460
   402.62         36.6183
   402.76         36.5103
   402.90         36.4367
   403.04         36.4078
   403.18         36.4270
   403.32         36.4886
   403.46         36.5804
   403.60         36.6894
   403.74         36.8044
   403.88         36.9157
   404.02         37.0117
   404.16         37.0774
   404.30         37.0986
   404.44         37.0685
   404.58         36.9907
   404.72         36.8783
   404.86         36.7480
   405.00         36.6133
   405.14         36.4814
   405.28         36.3531
   405.42         36.2251
   405.56         36.0939
   405.70         35.9581
   405.84         35.8177
   405.98         35.6733
   406.12         35.5281
   406.26         35.3856
   406.40         35.2441
   406.54         35.0946
   406.68         34.9276
   406.82         34.7397
   406.96         34.5345
   407.10         34.3190
   407.24         34.0992
   407.38         33.8784
   407.52         33.6578
   407.66         33.4380
   407.80         33.2196
   407.94         33.0028
   408.08         32.7858
   408.22         32.5607
   408.36         32.3098
   408.50         32.0071
   408.64         31.6225
   408.78         31.1269
   408.92         30.4959
   409.06         29.7174
   409.20         28.8022
   409.34         27.7868
   409.48         26.7286
   409.62         25.6974
   409.76         24.7660
   409.90         24.0040
   410.04         23.4740
   410.18         23.2258
   410.32         23.2877
   410.46         23.6582
   410.60         24.3066
   410.74         25.1771
   410.88         26.1962
   411.02         27.2840
   411.16         28.3649
   411.30         29.3746
   411.44         30.2649
   411.58         31.0091
   411.72         31.6032
   411.86         32.0604
   412.00         32.4027
   412.14         32.6564
   412.28         32.8491
   412.42         33.0077
   412.56         33.1568
   412.70         33.3183
   412.84         33.5059
   412.98         33.7219
   413.12         33.9593
   413.26         34.2079
   413.40         34.4574
   413.54         34.6982
   413.68         34.9217
   413.82         35.1200
   413.96         35.2859
   414.10         35.4126
   414.24         35.4947
   414.38         35.5298
   414.52         35.5211
   414.66         35.4789
   414.80         35.4167
   414.94         35.3480
   415.08         35.2852
   415.22         35.2397
   415.36         35.2204
   415.50         35.2303
   415.64         35.2657
   415.78         35.3211
   415.92         35.3892
   416.06         35.4586
   416.20         35.5151
   416.34         35.5445
   416.48         35.5351
   416.62         35.4787
   416.76         35.3741
   416.90         35.2302
   417.04         35.0637
   417.18         34.8954
   417.32         34.7427
   417.46         34.6176
   417.60         34.5294
   417.74         34.4850
   417.88         34.4873
   418.02         34.5345
   418.16         34.6216
   418.30         34.7417
   418.44         34.8836
   418.58         35.0300
   418.72         35.1601
   418.86         35.2574
   419.00         35.3126
   419.14         35.3233
   419.28         35.2923
   419.42         35.2265
   419.56         35.1346
   419.70         35.0273
   419.84         34.9185
   419.98         34.8255
   420.12         34.7664
   420.26         34.7556
   420.40         34.7986
   420.54         34.8899
   420.68         35.0153
   420.82         35.1549
   420.96         35.2852
   421.10         35.3811
   421.24         35.4202
   421.38         35.3881
   421.52         35.2808
   421.66         35.1062
   421.80         34.8824
   421.94         34.6343
   422.08         34.3879
   422.22         34.1655
   422.36         33.9850
   422.50         33.8577
   422.64         33.7869
   422.78         33.7688
   422.92         33.7958
   423.06         33.8582
   423.20         33.9466
   423.34         34.0522
   423.48         34.1640
   423.62         34.2691
   423.76         34.3545
   423.90         34.4114
   424.04         34.4403
   424.18         34.4513
   424.32         34.4585
   424.46         34.4713
   424.60         34.4917
   424.74         34.5151
   424.88         34.5360
   425.02         34.5532
   425.16         34.5695
   425.30         34.5907
   425.44         34.6232
   425.58         34.6696
   425.72         34.7260
   425.86         34.7818
   426.00         34.8234
   426.14         34.8386
   426.28         34.8215
   426.42         34.7746
   426.56         34.7070
   426.70         34.6314
   426.84         34.5600
   426.98         34.5001
   427.12         34.4550
   427.26         34.4244
   427.40         34.4060
   427.54         34.3960
   427.68         34.3877
   427.82         34.3701
   427.96         34.3304
   428.10         34.2584
   428.24         34.1488
   428.38         34.0003
   428.52         33.8162
   428.66         33.6027
   428.80         33.3669
   428.94         33.1164
   429.08         32.8586
   429.22         32.5977
   429.36         32.3356
   429.50         32.0737
   429.64         31.8126
   429.78         31.5548
   429.92         31.3064
   430.06         31.0765
   430.20         30.8759
   430.34         30.7163
   430.48         30.6089
   430.62         30.5623
   430.76         30.5788
   430.90         30.6504
   431.04         30.7601
   431.18         30.8843
   431.32         30.9969
   431.46         31.0746
   431.60         31.1018
   431.74         31.0708
   431.88         30.9785
   432.02         30.8229
   432.16         30.6021
   432.30         30.3132
   432.44         29.9502
   432.58         29.5032
   432.72         28.9588
   432.86         28.3062
   433.00         27.5454
   433.14         26.6928
   433.28         25.7823
   433.42         24.8622
   433.56         23.9902
   433.70         23.2266
   433.84         22.6262
   433.98         22.2339
   434.12         22.0820
   434.26         22.1875
   434.40         22.5484
   434.54         23.1420
   434.68         23.9291
   434.82         24.8583
   434.96         25.8730
   435.10         26.9183
   435.24         27.9461
   435.38         28.9179
   435.52         29.8083
   435.66         30.6045
   435.80         31.3011
   435.94         31.8957
   436.08         32.3859
   436.22         32.7707
   436.36         33.0517
   436.50         33.2369
   436.64         33.3431
   436.78         33.3945
   436.92         33.4160
   437.06         33.4266
   437.20         33.4357
   437.34         33.4451
   437.48         33.4526
   437.62         33.4570
   437.76         33.4579
   437.90         33.4547
   438.04         33.4473
   438.18         33.4369
   438.32         33.4260
   438.46         33.4187
   438.60         33.4186
   438.74         33.4273
   438.88         33.4456
   439.02         33.4737
   439.16         33.5117
   439.30         33.5574
   439.44         33.6059
   439.58         33.6491
   439.72         33.6812
   439.86         33.7026
   440.00         33.7203
   440.14         33.7432
   440.28         33.7762
   440.42         33.8155
   440.56         33.8520
   440.70         33.8761
   440.84         33.8823
   440.98         33.8724
   441.12         33.8524
   441.26         33.8288
   441.40         33.8088
   441.54         33.7991
   441.68         33.8040
   441.82         33.8266
   441.96         33.8677
   442.10         33.9231
   442.24         33.9847
   442.38         34.0441
   442.52         34.0950
   442.66         34.1347
   442.80         34.1635
   442.94         34.1798
   443.08         34.1820
   443.22         34.1717
   443.36         34.1541
   443.50         34.1364
   443.64         34.1230
   443.78         34.1138
   443.92         34.1063
   444.06         34.0957
   444.20         34.0756
   444.34         34.0404
   444.48         33.9863
   444.62         33.9109
   444.76         33.8145
   444.90         33.7021
   445.04         33.5839
   445.18         33.4708
   445.32         33.3707
   445.46         33.2845
   445.60         33.2073
   445.74         33.1368
   445.88         33.0767
   446.02         33.0349
   446.16         33.0176
   446.30         33.0258
   446.44         33.0557
   446.58         33.1004
   446.72         33.1495
   446.86         33.1904
   447.00         33.2118
   447.14         33.2063
   447.28         33.1722
   447.42         33.1135
   447.56         33.0360
   447.70         32.9444
   447.84         32.8426
   447.98         32.7365
   448.12         32.6347
   448.26         32.5476
   448.40         32.4882
   448.54         32.4686
   448.68         32.4960
   448.82         32.5698
   448.96         32.6818
   449.10         32.8215
   449.24         32.9780
   449.38         33.1410
   449.52         33.3014
   449.66         33.4523
   449.80         33.5904
   449.94         33.7148
   450.08         33.8238
   450.22         33.9133
   450.36         33.9801
   450.50         34.0238
   450.64         34.0469
   450.78         34.0509
   450.92         34.0358
   451.06         34.0015
   451.20         33.9486
   451.34         33.8777
   451.48         33.7876
   451.62         33.6759
   451.76         33.5403
   451.90         33.3791
   452.04         33.1920
   452.18         32.9821
   452.32         32.7588
   452.46         32.5380
   452.60         32.3369
   452.74         32.1688
   452.88         32.0436
   453.02         31.9684
   453.16         31.9451
   453.30         31.9697
   453.44         32.0320
   453.58         32.1169
   453.72         32.2066
   453.86         32.2826
   454.00         32.3284
   454.14         32.3325
   454.28         32.2886
   454.42         32.1987
   454.56         32.0738
   454.70         31.9315
   454.84         31.7926
   454.98         31.6780
   455.12         31.6041
   455.26         31.5793
   455.40         31.6042
   455.54         31.6750
   455.68         31.7838
   455.82         31.9196
   455.96         32.0700
   456.10         32.2227
   456.24         32.3668
   456.38         32.4963
   456.52         32.6094
   456.66         32.7062
   456.80         32.7850
   456.94         32.8408
