# File HD236894
# Wavelength [nm]    Normalized Amplitude
   349.70         145.8290
   349.84         146.1419
   349.98         146.4283
   350.12         146.7155
   350.26         147.0125
   350.40         147.3041
   350.54         147.5701
   350.68         147.7954
   350.82         147.9606
   350.96         148.0556
   351.10         148.0863
   351.24         148.0556
   351.38         147.9606
   351.52         147.7954
   351.66         147.5701
   351.80         147.3041
   351.94         147.0125
   352.08         146.7155
   352.22         146.4283
   352.36         146.1419
   352.50         145.8290
   352.64         145.4603
   352.78         145.0209
   352.92         144.5158
   353.06         143.9676
   353.20         143.4103
   353.34         142.8870
   353.48         142.4496
   353.62         142.1427
   353.76         141.9697
   353.90         141.8936
   354.04         141.8683
   354.18         141.8500
   354.32         141.8165
   354.46         141.7819
   354.60         141.7743
   354.74         141.8081
   354.88         141.8793
   355.02         141.9765
   355.16         142.0873
   355.30         142.1958
   355.44         142.2796
   355.58         142.3094
   355.72         142.2540
   355.86         142.0881
   356.00         141.8023
   356.14         141.4005
   356.28         140.8963
   356.42         140.3181
   356.56         139.7036
   356.70         139.0961
   356.84         138.5461
   356.98         138.0996
   357.12         137.7702
   357.26         137.5245
   357.40         137.3081
   357.54         137.0758
   357.68         136.7970
   357.82         136.4506
   357.96         136.0266
   358.10         135.5351
   358.24         135.0065
   358.38         134.4804
   358.52         134.0024
   358.66         133.6141
   358.80         133.3366
   358.94         133.1606
   359.08         133.0538
   359.22         132.9968
   359.36         132.9968
   359.50         133.0620
   359.64         133.1770
   359.78         133.3086
   359.92         133.4345
   360.06         133.5519
   360.20         133.6608
   360.34         133.7639
   360.48         133.8680
   360.62         133.9827
   360.76         134.1246
   360.90         134.3017
   361.04         134.5081
   361.18         134.7269
   361.32         134.9281
   361.46         135.0813
   361.60         135.1680
   361.74         135.1791
   361.88         135.1025
   362.02         134.9117
   362.16         134.5777
   362.30         134.0882
   362.44         133.4636
   362.58         132.7515
   362.72         132.0092
   362.86         131.3024
   363.00         130.6972
   363.14         130.2264
   363.28         129.9044
   363.42         129.7451
   363.56         129.7367
   363.70         129.8375
   363.84         129.9885
   363.98         130.1367
   364.12         130.2434
   364.26         130.2836
   364.40         130.2516
   364.54         130.1634
   364.68         130.0643
   364.82         130.0143
   364.96         130.0573
   365.10         130.2023
   365.24         130.4250
   365.38         130.6826
   365.52         130.9212
   365.66         131.0825
   365.80         131.1277
   365.94         131.0482
   366.08         130.8460
   366.22         130.5332
   366.36         130.1530
   366.50         129.7752
   366.64         129.4715
   366.78         129.2851
   366.92         129.2245
   367.06         129.2721
   367.20         129.3815
   367.34         129.4850
   367.48         129.5122
   367.62         129.4039
   367.76         129.1214
   367.90         128.6560
   368.04         128.0255
   368.18         127.2551
   368.32         126.3786
   368.46         125.4485
   368.60         124.5260
   368.74         123.6811
   368.88         122.9807
   369.02         122.4549
   369.16         122.0831
   369.30         121.8101
   369.44         121.5713
   369.58         121.3170
   369.72         121.0207
   369.86         120.6706
   370.00         120.2726
   370.14         119.8520
   370.28         119.4401
   370.42         119.0666
   370.56         118.7545
   370.70         118.5084
   370.84         118.3214
   370.98         118.1983
   371.12         118.1503
   371.26         118.1728
   371.40         118.2412
   371.54         118.3196
   371.68         118.3740
   371.82         118.3874
   371.96         118.3585
   372.10         118.2905
   372.24         118.1844
   372.38         118.0428
   372.52         117.8801
   372.66         117.7182
   372.80         117.5792
   372.94         117.4833
   373.08         117.4510
   373.22         117.4911
   373.36         117.5895
   373.50         117.7207
   373.64         117.8453
   373.78         117.9065
   373.92         117.8486
   374.06         117.6396
   374.20         117.2774
   374.34         116.7836
   374.48         116.1972
   374.62         115.5680
   374.76         114.9502
   374.90         114.4071
   375.04         114.0125
   375.18         113.8228
   375.32         113.8489
   375.46         114.0696
   375.60         114.4407
   375.74         114.8784
   375.88         115.2628
   376.02         115.4778
   376.16         115.4539
   376.30         115.1787
   376.44         114.7038
   376.58         114.1375
   376.72         113.6115
   376.86         113.2467
   377.00         113.1325
   377.14         113.3203
   377.28         113.8209
   377.42         114.6062
   377.56         115.6246
   377.70         116.8067
   377.84         118.0558
   377.98         119.2536
   378.12         120.2844
   378.26         121.0426
   378.40         121.4338
   378.54         121.3910
   378.68         120.8948
   378.82         119.9802
   378.96         118.7274
   379.10         117.2509
   379.24         115.6884
   379.38         114.1895
   379.52         112.9035
   379.66         111.9627
   379.80         111.4702
   379.94         111.4948
   380.08         112.0602
   380.22         113.1310
   380.36         114.6081
   380.50         116.3353
   380.64         118.1160
   380.78         119.7488
   380.92         121.0683
   381.06         121.9704
   381.20         122.4205
   381.34         122.4541
   381.48         122.1615
   381.62         121.6573
   381.76         121.0558
   381.90         120.4520
   382.04         119.8898
   382.18         119.3475
   382.32         118.7682
   382.46         118.0934
   382.60         117.2813
   382.74         116.3173
   382.88         115.2170
   383.02         114.0306
   383.16         112.8427
   383.30         111.7653
   383.44         110.9266
   383.58         110.4428
   383.72         110.3857
   383.86         110.7674
   384.00         111.5506
   384.14         112.6634
   384.28         113.9979
   384.42         115.4184
   384.56         116.7826
   384.70         117.9634
   384.84         118.8792
   384.98         119.5068
   385.12         119.8632
   385.26         119.9852
   385.40         119.9141
   385.54         119.6840
   385.68         119.3291
   385.82         118.8924
   385.96         118.4215
   386.10         117.9633
   386.24         117.5565
   386.38         117.2286
   386.52         116.9996
   386.66         116.8806
   386.80         116.8639
   386.94         116.9135
   387.08         116.9719
   387.22         116.9684
   387.36         116.8207
   387.50         116.4376
   387.64         115.7293
   387.78         114.6304
   387.92         113.1284
   388.06         111.2819
   388.20         109.2195
   388.34         107.1119
   388.48         105.1378
   388.62         103.4647
   388.76         102.2349
   388.90         101.5481
   389.04         101.4553
   389.18         101.9557
   389.32         102.9898
   389.46         104.4405
   389.60         106.1510
   389.74         107.9538
   389.88         109.6870
   390.02         111.2062
   390.16         112.4047
   390.30         113.2358
   390.44         113.7204
   390.58         113.9214
   390.72         113.9143
   390.86         113.7699
   391.00         113.5430
   391.14         113.2725
   391.28         112.9847
   391.42         112.6895
   391.56         112.3790
   391.70         112.0338
   391.84         111.6359
   391.98         111.1704
   392.12         110.6203
   392.26         109.9717
   392.40         109.2340
   392.54         108.4475
   392.68         107.6686
   392.82         106.9588
   392.96         106.3840
   393.10         105.9999
   393.24         105.8375
   393.38         105.9111
   393.52         106.2177
   393.66         106.7246
   393.80         107.3709
   393.94         108.0894
   394.08         108.8169
   394.22         109.4927
   394.36         110.0627
   394.50         110.4853
   394.64         110.7301
   394.78         110.7736
   394.92         110.6074
   395.06         110.2429
   395.20         109.6859
   395.34         108.9250
   395.48         107.9369
   395.62         106.6859
   395.76         105.1347
   395.90         103.2769
   396.04         101.1658
   396.18         98.9088
   396.32         96.6470
   396.46         94.5449
   396.60         92.7713
   396.74         91.4640
   396.88         90.7088
   397.02         90.5457
   397.16         90.9705
   397.30         91.9294
   397.44         93.3191
   397.58         95.0061
   397.72         96.8434
   397.86         98.6792
   398.00         100.3771
   398.14         101.8284
   398.28         102.9673
   398.42         103.7858
   398.56         104.3224
   398.70         104.6371
   398.84         104.7874
   398.98         104.8156
   399.12         104.7488
   399.26         104.6019
   399.40         104.3822
   399.54         104.0998
   399.68         103.7714
   399.82         103.4115
   399.96         103.0284
   400.10         102.6311
   400.24         102.2336
   400.38         101.8461
   400.52         101.4715
   400.66         101.1070
   400.80         100.7488
   400.94         100.3954
   401.08         100.0417
   401.22         99.6689
   401.36         99.2453
   401.50         98.7390
   401.64         98.1366
   401.78         97.4527
   401.92         96.7283
   402.06         96.0223
   402.20         95.4021
   402.34         94.9307
   402.48         94.6540
   402.62         94.5983
   402.76         94.7697
   402.90         95.1483
   403.04         95.6880
   403.18         96.3325
   403.32         97.0253
   403.46         97.7060
   403.60         98.3105
   403.74         98.7838
   403.88         99.0971
   404.02         99.2568
   404.16         99.2999
   404.30         99.2740
   404.44         99.2143
   404.58         99.1375
   404.72         99.0487
   404.86         98.9439
   405.00         98.8093
   405.14         98.6241
   405.28         98.3710
   405.42         98.0373
   405.56         97.6115
   405.70         97.0848
   405.84         96.4565
   405.98         95.7352
   406.12         94.9424
   406.26         94.1204
   406.40         93.3261
   406.54         92.6087
   406.68         91.9990
   406.82         91.5174
   406.96         91.1803
   407.10         90.9927
   407.24         90.9413
   407.38         90.9943
   407.52         91.1040
   407.66         91.2171
   407.80         91.2916
   407.94         91.3049
   408.08         91.2467
   408.22         91.1106
   408.36         90.8899
   408.50         90.5710
   408.64         90.1313
   408.78         89.5375
   408.92         88.7462
   409.06         87.7176
   409.20         86.4408
   409.34         84.9577
   409.48         83.3613
   409.62         81.7705
   409.76         80.3079
   409.90         79.0913
   410.04         78.2214
   410.18         77.7701
   410.32         77.7703
   410.46         78.2057
   410.60         79.0126
   410.74         80.0891
   410.88         81.3055
   411.02         82.5211
   411.16         83.6123
   411.30         84.4970
   411.44         85.1434
   411.58         85.5692
   411.72         85.8362
   411.86         86.0299
   412.00         86.2305
   412.14         86.4883
   412.28         86.8159
   412.42         87.2006
   412.56         87.6163
   412.70         88.0290
   412.84         88.4044
   412.98         88.7076
   413.12         88.9076
   413.26         88.9899
   413.40         88.9531
   413.54         88.8033
   413.68         88.5583
   413.82         88.2519
   413.96         87.9232
   414.10         87.6037
   414.24         87.3138
   414.38         87.0644
   414.52         86.8600
   414.66         86.6993
   414.80         86.5745
   414.94         86.4773
   415.08         86.4050
   415.22         86.3561
   415.36         86.3251
   415.50         86.3030
   415.64         86.2804
   415.78         86.2556
   415.92         86.2306
   416.06         86.2034
   416.20         86.1662
   416.34         86.1117
   416.48         86.0352
   416.62         85.9318
   416.76         85.8011
   416.90         85.6507
   417.04         85.4912
   417.18         85.3301
   417.32         85.1693
   417.46         85.0073
   417.60         84.8442
   417.74         84.6805
   417.88         84.5168
   418.02         84.3498
   418.16         84.1756
   418.30         83.9940
   418.44         83.8016
   418.58         83.5856
   418.72         83.3288
   418.86         83.0211
   419.00         82.6642
   419.14         82.2712
   419.28         81.8634
   419.42         81.4676
   419.56         81.1104
   419.70         80.8119
   419.84         80.5844
   419.98         80.4344
   420.12         80.3648
   420.26         80.3761
   420.40         80.4659
   420.54         80.6250
   420.68         80.8329
   420.82         81.0632
   420.96         81.2889
   421.10         81.4838
   421.24         81.6333
   421.38         81.7381
   421.52         81.8066
   421.66         81.8460
   421.80         81.8633
   421.94         81.8607
   422.08         81.8321
   422.22         81.7656
   422.36         81.6547
   422.50         81.5029
   422.64         81.3261
   422.78         81.1484
   422.92         80.9915
   423.06         80.8671
   423.20         80.7769
   423.34         80.7189
   423.48         80.6912
   423.62         80.6865
   423.76         80.6926
   423.90         80.6918
   424.04         80.6614
   424.18         80.5833
   424.32         80.4519
   424.46         80.2714
   424.60         80.0494
   424.74         79.7967
   424.88         79.5330
   425.02         79.2827
   425.16         79.0637
   425.30         78.8840
   425.44         78.7434
   425.58         78.6377
   425.72         78.5629
   425.86         78.5153
   426.00         78.4883
   426.14         78.4695
   426.28         78.4444
   426.42         78.4036
   426.56         78.3439
   426.70         78.2670
   426.84         78.1772
   426.98         78.0764
   427.12         77.9651
   427.26         77.8467
   427.40         77.7273
   427.54         77.6129
   427.68         77.5077
   427.82         77.4117
   427.96         77.3195
   428.10         77.2232
   428.24         77.1191
   428.38         77.0078
   428.52         76.8921
   428.66         76.7778
   428.80         76.6724
   428.94         76.5840
   429.08         76.5190
   429.22         76.4793
   429.36         76.4597
   429.50         76.4541
   429.64         76.4595
   429.78         76.4731
   429.92         76.4916
   430.06         76.5116
   430.20         76.5300
   430.34         76.5415
   430.48         76.5379
   430.62         76.5125
   430.76         76.4659
   430.90         76.4048
   431.04         76.3351
   431.18         76.2577
   431.32         76.1693
   431.46         76.0648
   431.60         75.9397
   431.74         75.7923
   431.88         75.6243
   432.02         75.4399
   432.16         75.2452
   432.30         75.0401
   432.44         74.8053
   432.58         74.4995
   432.72         74.0657
   432.86         73.4444
   433.00         72.5955
   433.14         71.5174
   433.28         70.2528
   433.42         68.8793
   433.56         67.4941
   433.70         66.2009
   433.84         65.1006
   433.98         64.2797
   434.12         63.8045
   434.26         63.7139
   434.40         64.0108
   434.54         64.6613
   434.68         65.6026
   434.82         66.7514
   434.96         68.0082
   435.10         69.2665
   435.24         70.4325
   435.38         71.4428
   435.52         72.2674
   435.66         72.9062
   435.80         73.3769
   435.94         73.7035
   436.08         73.9083
   436.22         74.0089
   436.36         74.0207
   436.50         73.9586
   436.64         73.8371
   436.78         73.6713
   436.92         73.4755
   437.06         73.2622
   437.20         73.0395
   437.34         72.8079
   437.48         72.5585
   437.62         72.2751
   437.76         71.9435
   437.90         71.5587
   438.04         71.1263
   438.18         70.6640
   438.32         70.2015
   438.46         69.7754
   438.60         69.4168
   438.74         69.1449
   438.88         68.9676
   439.02         68.8818
   439.16         68.8751
   439.30         68.9312
   439.44         69.0332
   439.58         69.1643
   439.72         69.3036
   439.86         69.4244
   440.00         69.5038
   440.14         69.5299
   440.28         69.5018
   440.42         69.4244
   440.56         69.3052
   440.70         69.1546
   440.84         68.9834
   440.98         68.7948
   441.12         68.5804
   441.26         68.3272
   441.40         68.0255
   441.54         67.6701
   441.68         67.2627
   441.82         66.8146
   441.96         66.3442
   442.10         65.8738
   442.24         65.4254
   442.38         65.0176
   442.52         64.6657
   442.66         64.3841
   442.80         64.1867
   442.94         64.0807
   443.08         64.0626
   443.22         64.1231
   443.36         64.2502
   443.50         64.4263
   443.64         64.6309
   443.78         64.8485
   443.92         65.0721
   444.06         65.2971
   444.20         65.5220
   444.34         65.7481
   444.48         65.9727
   444.62         66.1892
   444.76         66.3921
   444.90         66.5780
   445.04         66.7424
   445.18         66.8793
   445.32         66.9821
   445.46         67.0447
   445.60         67.0541
   445.74         66.9868
   445.88         66.8154
   446.02         66.5177
   446.16         66.0893
   446.30         65.5519
   446.44         64.9515
   446.58         64.3473
   446.72         63.7954
   446.86         63.3410
   447.00         63.0148
   447.14         62.8353
   447.28         62.8121
   447.42         62.9429
   447.56         63.2122
   447.70         63.5907
   447.84         64.0397
   447.98         64.5134
   448.12         64.9649
   448.26         65.3549
   448.40         65.6565
   448.54         65.8608
   448.68         65.9773
   448.82         66.0266
   448.96         66.0275
   449.10         65.9902
   449.24         65.9185
   449.38         65.8119
   449.52         65.6691
   449.66         65.4921
   449.80         65.2866
   449.94         65.0613
   450.08         64.8241
   450.22         64.5801
   450.36         64.3330
   450.50         64.0831
   450.64         63.8285
   450.78         63.5711
   450.92         63.3154
   451.06         63.0645
   451.20         62.8261
   451.34         62.6137
   451.48         62.4383
   451.62         62.3054
   451.76         62.2191
   451.90         62.1770
   452.04         62.1682
   452.18         62.1796
   452.32         62.2008
   452.46         62.2240
   452.60         62.2402
   452.74         62.2359
   452.88         62.1959
   453.02         62.1089
   453.16         61.9698
   453.30         61.7800
   453.44         61.5462
   453.58         61.2795
   453.72         60.9961
   453.86         60.7136
   454.00         60.4469
   454.14         60.2099
   454.28         60.0183
   454.42         59.8860
   454.56         59.8187
   454.70         59.8137
   454.84         59.8633
   454.98         59.9550
