# File HD237007
# Wavelength [nm]    Normalized Amplitude
   349.70         210.8496
   349.84         211.1945
   349.98         211.3334
   350.12         211.2167
   350.26         210.8490
   350.40         210.2920
   350.54         209.6472
   350.68         209.0225
   350.82         208.5106
   350.96         208.1770
   351.10         208.0608
   351.24         208.1770
   351.38         208.5106
   351.52         209.0225
   351.66         209.6472
   351.80         210.2920
   351.94         210.8490
   352.08         211.2167
   352.22         211.3334
   352.36         211.1945
   352.50         210.8496
   352.64         210.3768
   352.78         209.8536
   352.92         209.3523
   353.06         208.9527
   353.20         208.7238
   353.34         208.6834
   353.48         208.7876
   353.62         208.9449
   353.76         209.0515
   353.90         209.0259
   354.04         208.8227
   354.18         208.4233
   354.32         207.8133
   354.46         207.0048
   354.60         206.0639
   354.74         205.0964
   354.88         204.2128
   355.02         203.4813
   355.16         202.9136
   355.30         202.4866
   355.44         202.1686
   355.58         201.9287
   355.72         201.7186
   355.86         201.4516
   356.00         201.0345
   356.14         200.4218
   356.28         199.6326
   356.42         198.7337
   356.56         197.7847
   356.70         196.7923
   356.84         195.7252
   356.98         194.5624
   357.12         193.3145
   357.26         191.9963
   357.40         190.5998
   357.54         189.1005
   357.68         187.4875
   357.82         185.7934
   357.96         184.1016
   358.10         182.5117
   358.24         181.0980
   358.38         179.9129
   358.52         179.0033
   358.66         178.4025
   358.80         178.1051
   358.94         178.0624
   359.08         178.1982
   359.22         178.4251
   359.36         178.6780
   359.50         178.9343
   359.64         179.1892
   359.78         179.4265
   359.92         179.6231
   360.06         179.7640
   360.20         179.8500
   360.34         179.8920
   360.48         179.8960
   360.62         179.8608
   360.76         179.7764
   360.90         179.6286
   361.04         179.4110
   361.18         179.1231
   361.32         178.7705
   361.46         178.3734
   361.60         177.9621
   361.74         177.5661
   361.88         177.2192
   362.02         176.9497
   362.16         176.7634
   362.30         176.6568
   362.44         176.6305
   362.58         176.6816
   362.72         176.7843
   362.86         176.8837
   363.00         176.9230
   363.14         176.8847
   363.28         176.7945
   363.42         176.6915
   363.56         176.5917
   363.70         176.4775
   363.84         176.3357
   363.98         176.1850
   364.12         176.0551
   364.26         175.9639
   364.40         175.9224
   364.54         175.9446
   364.68         176.0332
   364.82         176.1899
   364.96         176.4255
   365.10         176.7430
   365.24         177.1130
   365.38         177.4671
   365.52         177.7400
   365.66         177.9128
   365.80         178.0058
   365.94         178.0353
   366.08         177.9787
   366.22         177.7925
   366.36         177.4538
   366.50         176.9770
   366.64         176.3967
   366.78         175.7423
   366.92         175.0471
   367.06         174.3615
   367.20         173.7418
   367.34         173.2262
   367.48         172.8210
   367.62         172.5012
   367.76         172.2383
   367.90         172.0235
   368.04         171.8615
   368.18         171.7693
   368.32         171.7557
   368.46         171.7942
   368.60         171.8257
   368.74         171.7881
   368.88         171.6599
   369.02         171.4497
   369.16         171.1563
   369.30         170.7630
   369.44         170.2517
   369.58         169.6144
   369.72         168.8472
   369.86         167.9568
   370.00         166.9804
   370.14         165.9862
   370.28         165.0599
   370.42         164.2881
   370.56         163.7268
   370.70         163.3859
   370.84         163.2532
   370.98         163.3078
   371.12         163.5190
   371.26         163.8493
   371.40         164.2457
   371.54         164.6496
   371.68         165.0205
   371.82         165.3361
   371.96         165.5862
   372.10         165.7741
   372.24         165.8971
   372.38         165.9398
   372.52         165.8965
   372.66         165.7848
   372.80         165.6313
   372.94         165.4603
   373.08         165.2922
   373.22         165.1444
   373.36         165.0258
   373.50         164.9121
   373.64         164.7396
   373.78         164.4377
   373.92         163.9408
   374.06         163.1900
   374.20         162.1641
   374.34         160.8934
   374.48         159.4432
   374.62         157.9159
   374.76         156.4560
   374.90         155.2267
   375.04         154.3818
   375.18         154.0359
   375.32         154.2342
   375.46         154.9364
   375.60         156.0127
   375.74         157.2445
   375.88         158.3636
   376.02         159.1109
   376.16         159.2852
   376.30         158.8054
   376.44         157.7470
   376.58         156.3142
   376.72         154.7888
   376.86         153.4813
   377.00         152.6797
   377.14         152.6023
   377.28         153.3679
   377.42         154.9844
   377.56         157.3510
   377.70         160.2914
   377.84         163.5796
   377.98         166.9486
   378.12         170.0963
   378.26         172.6967
   378.40         174.4487
   378.54         175.1527
   378.68         174.7501
   378.82         173.3199
   378.96         171.0635
   379.10         168.2680
   379.24         165.2638
   379.38         162.3856
   379.52         159.9527
   379.66         158.2525
   379.80         157.4864
   379.94         157.7310
   380.08         158.9447
   380.22         160.9864
   380.36         163.6318
   380.50         166.5770
   380.64         169.4689
   380.78         171.9789
   380.92         173.8804
   381.06         175.0928
   381.20         175.6688
   381.34         175.7504
   381.48         175.5111
   381.62         175.0958
   381.76         174.5825
   381.90         173.9779
   382.04         173.2206
   382.18         172.1923
   382.32         170.7505
   382.46         168.7807
   382.60         166.2591
   382.74         163.2850
   382.88         160.0619
   383.02         156.8552
   383.16         153.9585
   383.30         151.6603
   383.44         150.2130
   383.58         149.7920
   383.72         150.4546
   383.86         152.1296
   384.00         154.6363
   384.14         157.7039
   384.28         161.0037
   384.42         164.2133
   384.56         167.0741
   384.70         169.4095
   384.84         171.1261
   384.98         172.2176
   385.12         172.7593
   385.26         172.8751
   385.40         172.7022
   385.54         172.3593
   385.68         171.9217
   385.82         171.4200
   385.96         170.8653
   386.10         170.2719
   386.24         169.6518
   386.38         169.0113
   386.52         168.3657
   386.66         167.7377
   386.80         167.1266
   386.94         166.5067
   387.08         165.8377
   387.22         165.0447
   387.36         164.0125
   387.50         162.6062
   387.64         160.7069
   387.78         158.2556
   387.92         155.2820
   388.06         151.9130
   388.20         148.3513
   388.34         144.8407
   388.48         141.6457
   388.62         139.0328
   388.76         137.2342
   388.90         136.4105
   389.04         136.6351
   389.18         137.8860
   389.32         140.0335
   389.46         142.8502
   389.60         146.0562
   389.74         149.3658
   389.88         152.5156
   390.02         155.2968
   390.16         157.5856
   390.30         159.3593
   390.44         160.6803
   390.58         161.6470
   390.72         162.3469
   390.86         162.8328
   391.00         163.1304
   391.14         163.2541
   391.28         163.2087
   391.42         162.9965
   391.56         162.6166
   391.70         162.0603
   391.84         161.3112
   391.98         160.3495
   392.12         159.1671
   392.26         157.7848
   392.40         156.2597
   392.54         154.6770
   392.68         153.1451
   392.82         151.7791
   392.96         150.6772
   393.10         149.9037
   393.24         149.4801
   393.38         149.3917
   393.52         149.6030
   393.66         150.0706
   393.80         150.7372
   393.94         151.5325
   394.08         152.3897
   394.22         153.2357
   394.36         153.9889
   394.50         154.5792
   394.64         154.9606
   394.78         155.1143
   394.92         155.0381
   395.06         154.7235
   395.20         154.1447
   395.34         153.2471
   395.48         151.9430
   395.62         150.1400
   395.76         147.7758
   395.90         144.8472
   396.04         141.4360
   396.18         137.7179
   396.32         133.9437
   396.46         130.4038
   396.60         127.3860
   396.74         125.1309
   396.88         123.7969
   397.02         123.4576
   397.16         124.1061
   397.30         125.6464
   397.44         127.9041
   397.58         130.6450
   397.72         133.5995
   397.86         136.5029
   398.00         139.1314
   398.14         141.3289
   398.28         143.0189
   398.42         144.1993
   398.56         144.9344
   398.70         145.3313
   398.84         145.4996
   398.98         145.5242
   399.12         145.4515
   399.26         145.2918
   399.40         145.0431
   399.54         144.7130
   399.68         144.3259
   399.82         143.9121
   399.96         143.4963
   400.10         143.1044
   400.24         142.7678
   400.38         142.5203
   400.52         142.3790
   400.66         142.3256
   400.80         142.3150
   400.94         142.2892
   401.08         142.1832
   401.22         141.9279
   401.36         141.4552
   401.50         140.7136
   401.64         139.6889
   401.78         138.4160
   401.92         136.9773
   402.06         135.4870
   402.20         134.0711
   402.34         132.8526
   402.48         131.9337
   402.62         131.3858
   402.76         131.2463
   402.90         131.5036
   403.04         132.0919
   403.18         132.9056
   403.32         133.8321
   403.46         134.7731
   403.60         135.6494
   403.74         136.4095
   403.88         137.0363
   404.02         137.5472
   404.16         137.9796
   404.30         138.3722
   404.44         138.7515
   404.58         139.1266
   404.72         139.4968
   404.86         139.8598
   405.00         140.2051
   405.14         140.5136
   405.28         140.7648
   405.42         140.9366
   405.56         140.9971
   405.70         140.9135
   405.84         140.6622
   405.98         140.2315
   406.12         139.6257
   406.26         138.8691
   406.40         138.0013
   406.54         137.0664
   406.68         136.1114
   406.82         135.1854
   406.96         134.3330
   407.10         133.5858
   407.24         132.9620
   407.38         132.4695
   407.52         132.0977
   407.66         131.8130
   407.80         131.5669
   407.94         131.3020
   408.08         130.9549
   408.22         130.4691
   408.36         129.8060
   408.50         128.9394
   408.64         127.8426
   408.78         126.4841
   408.92         124.8363
   409.06         122.8842
   409.20         120.6368
   409.34         118.1472
   409.48         115.5215
   409.62         112.9093
   409.76         110.4863
   409.90         108.4314
   410.04         106.9017
   410.18         106.0086
   410.32         105.8054
   410.46         106.2849
   410.60         107.3752
   410.74         108.9489
   410.88         110.8473
   411.02         112.8958
   411.16         114.9254
   411.30         116.8007
   411.44         118.4427
   411.58         119.8303
   411.72         120.9830
   411.86         121.9451
   412.00         122.7732
   412.14         123.5125
   412.28         124.1854
   412.42         124.7999
   412.56         125.3538
   412.70         125.8345
   412.84         126.2149
   412.98         126.4595
   413.12         126.5316
   413.26         126.3990
   413.40         126.0489
   413.54         125.4999
   413.68         124.7988
   413.82         124.0124
   413.96         123.2147
   414.10         122.4716
   414.24         121.8334
   414.38         121.3357
   414.52         121.0037
   414.66         120.8470
   414.80         120.8573
   414.94         121.0144
   415.08         121.2895
   415.22         121.6420
   415.36         122.0188
   415.50         122.3595
   415.64         122.6089
   415.78         122.7317
   415.92         122.7180
   416.06         122.5809
   416.20         122.3503
   416.34         122.0621
   416.48         121.7492
   416.62         121.4359
   416.76         121.1363
   416.90         120.8617
   417.04         120.6266
   417.18         120.4403
   417.32         120.2994
   417.46         120.1942
   417.60         120.1115
   417.74         120.0323
   417.88         119.9323
   418.02         119.7874
   418.16         119.5815
   418.30         119.3114
   418.44         118.9853
   418.58         118.6195
   418.72         118.2325
   418.86         117.8399
   419.00         117.4520
   419.14         117.0738
   419.28         116.7085
   419.42         116.3652
   419.56         116.0605
   419.70         115.8054
   419.84         115.6021
   419.98         115.4520
   420.12         115.3534
   420.26         115.2996
   420.40         115.2854
   420.54         115.3068
   420.68         115.3581
   420.82         115.4324
   420.96         115.5218
   421.10         115.6226
   421.24         115.7371
   421.38         115.8634
   421.52         115.9954
   421.66         116.1284
   421.80         116.2549
   421.94         116.3673
   422.08         116.4589
   422.22         116.5173
   422.36         116.5216
   422.50         116.4499
   422.64         116.2838
   422.78         116.0155
   422.92         115.6593
   423.06         115.2451
   423.20         114.8033
   423.34         114.3597
   423.48         113.9387
   423.62         113.5635
   423.76         113.2565
   423.90         113.0304
   424.04         112.8835
   424.18         112.8099
   424.32         112.8005
   424.46         112.8392
   424.60         112.9073
   424.74         112.9824
   424.88         113.0317
   425.02         113.0190
   425.16         112.9165
   425.30         112.7138
   425.44         112.4188
   425.58         112.0521
   425.72         111.6395
   425.86         111.2066
   426.00         110.7797
   426.14         110.3856
   426.28         110.0465
   426.42         109.7733
   426.56         109.5649
   426.70         109.4153
   426.84         109.3194
   426.98         109.2711
   427.12         109.2587
   427.26         109.2689
   427.40         109.2902
   427.54         109.3105
   427.68         109.3235
   427.82         109.3316
   427.96         109.3404
   428.10         109.3518
   428.24         109.3635
   428.38         109.3695
   428.52         109.3675
   428.66         109.3660
   428.80         109.3761
   428.94         109.3990
   429.08         109.4260
   429.22         109.4451
   429.36         109.4438
   429.50         109.4094
   429.64         109.3261
   429.78         109.1771
   429.92         108.9525
   430.06         108.6511
   430.20         108.2803
   430.34         107.8586
   430.48         107.4096
   430.62         106.9533
   430.76         106.5053
   430.90         106.0822
   431.04         105.7039
   431.18         105.3864
   431.32         105.1292
   431.46         104.9137
   431.60         104.7152
   431.74         104.5123
   431.88         104.2872
   432.02         104.0209
   432.16         103.6870
   432.30         103.2516
   432.44         102.6746
   432.58         101.9075
   432.72         100.8943
   432.86         99.5891
   433.00         97.9781
   433.14         96.0921
   433.28         94.0097
   433.42         91.8513
   433.56         89.7595
   433.70         87.8814
   433.84         86.3538
   433.98         85.2893
   434.12         84.7680
   434.26         84.8263
   434.40         85.4506
   434.54         86.5798
   434.68         88.1086
   434.82         89.8987
   434.96         91.7973
   435.10         93.6565
   435.24         95.3531
   435.38         96.8089
   435.52         97.9959
   435.66         98.9229
   435.80         99.6182
   435.94         100.1151
   436.08         100.4465
   436.22         100.6474
   436.36         100.7604
   436.50         100.8261
   436.64         100.8715
   436.78         100.9119
   436.92         100.9547
   437.06         100.9961
   437.20         101.0221
   437.34         101.0130
   437.48         100.9431
   437.62         100.7846
   437.76         100.5130
   437.90         100.1187
   438.04         99.6133
   438.18         99.0227
   438.32         98.3840
   438.46         97.7451
   438.60         97.1590
   438.74         96.6748
   438.88         96.3276
   439.02         96.1308
   439.16         96.0770
   439.30         96.1432
   439.44         96.2981
   439.58         96.5022
   439.72         96.7084
   439.86         96.8715
   440.00         96.9534
   440.14         96.9240
   440.28         96.7692
   440.42         96.4960
   440.56         96.1313
   440.70         95.7103
   440.84         95.2653
   440.98         94.8241
   441.12         94.4062
   441.26         94.0188
   441.40         93.6580
   441.54         93.3157
   441.68         92.9835
   441.82         92.6497
   441.96         92.2999
   442.10         91.9220
   442.24         91.5082
   442.38         91.0557
   442.52         90.5697
   442.66         90.0629
   442.80         89.5561
   442.94         89.0806
   443.08         88.6780
   443.22         88.3902
   443.36         88.2469
   443.50         88.2570
   443.64         88.4122
   443.78         88.6925
   443.92         89.0715
   444.06         89.5226
   444.20         90.0185
   444.34         90.5277
   444.48         91.0180
   444.62         91.4662
   444.76         91.8597
   444.90         92.1899
   445.04         92.4479
   445.18         92.6259
   445.32         92.7204
   445.46         92.7299
   445.60         92.6460
   445.74         92.4480
   445.88         92.1061
   446.02         91.5961
   446.16         90.9181
   446.30         90.1048
   446.44         89.2168
   446.58         88.3266
   446.72         87.5066
   446.86         86.8197
   447.00         86.3129
   447.14         86.0138
   447.28         85.9333
   447.42         86.0654
   447.56         86.3879
   447.70         86.8668
   447.84         87.4600
   447.98         88.1184
   448.12         88.7842
   448.26         89.4009
   448.40         89.9321
   448.54         90.3705
   448.68         90.7283
   448.82         91.0162
   448.96         91.2343
   449.10         91.3781
   449.24         91.4421
   449.38         91.4222
   449.52         91.3214
   449.66         91.1547
   449.80         90.9485
   449.94         90.7345
   450.08         90.5391
   450.22         90.3749
   450.36         90.2399
   450.50         90.1244
   450.64         90.0214
   450.78         89.9306
   450.92         89.8570
   451.06         89.8058
   451.20         89.7733
   451.34         89.7437
   451.48         89.6993
   451.62         89.6344
   451.76         89.5561
   451.90         89.4723
   452.04         89.3827
   452.18         89.2812
   452.32         89.1608
   452.46         89.0138
   452.60         88.8323
   452.74         88.6098
   452.88         88.3424
   453.02         88.0346
   453.16         87.7016
   453.30         87.3643
   453.44         87.0433
   453.58         86.7546
