# File HD23524
# Wavelength [nm]    Normalized Amplitude
   349.70         4.3988
   349.84         4.3683
   349.98         4.3623
   350.12         4.3800
   350.26         4.4186
   350.40         4.4728
   350.54         4.5351
   350.68         4.5969
   350.82         4.6498
   350.96         4.6860
   351.10         4.6989
   351.24         4.6860
   351.38         4.6498
   351.52         4.5969
   351.66         4.5351
   351.80         4.4728
   351.94         4.4186
   352.08         4.3800
   352.22         4.3623
   352.36         4.3683
   352.50         4.3988
   352.64         4.4531
   352.78         4.5285
   352.92         4.6203
   353.06         4.7225
   353.20         4.8281
   353.34         4.9294
   353.48         5.0201
   353.62         5.0963
   353.76         5.1561
   353.90         5.1984
   354.04         5.2230
   354.18         5.2310
   354.32         5.2244
   354.46         5.2054
   354.60         5.1762
   354.74         5.1388
   354.88         5.0956
   355.02         5.0491
   355.16         5.0002
   355.30         4.9488
   355.44         4.8938
   355.58         4.8331
   355.72         4.7646
   355.86         4.6868
   356.00         4.6008
   356.14         4.5095
   356.28         4.4168
   356.42         4.3262
   356.56         4.2397
   356.70         4.1590
   356.84         4.0854
   356.98         4.0189
   357.12         3.9574
   357.26         3.8978
   357.40         3.8373
   357.54         3.7747
   357.68         3.7116
   357.82         3.6531
   357.96         3.6071
   358.10         3.5829
   358.24         3.5892
   358.38         3.6333
   358.52         3.7208
   358.66         3.8538
   358.80         4.0282
   358.94         4.2325
   359.08         4.4497
   359.22         4.6608
   359.36         4.8487
   359.50         4.9986
   359.64         5.1000
   359.78         5.1475
   359.92         5.1434
   360.06         5.0974
   360.20         5.0240
   360.34         4.9380
   360.48         4.8497
   360.62         4.7643
   360.76         4.6862
   360.90         4.6201
   361.04         4.5716
   361.18         4.5454
   361.32         4.5445
   361.46         4.5689
   361.60         4.6149
   361.74         4.6769
   361.88         4.7477
   362.02         4.8194
   362.16         4.8852
   362.30         4.9419
   362.44         4.9897
   362.58         5.0299
   362.72         5.0637
   362.86         5.0909
   363.00         5.1099
   363.14         5.1192
   363.28         5.1198
   363.42         5.1149
   363.56         5.1077
   363.70         5.0999
   363.84         5.0931
   363.98         5.0898
   364.12         5.0920
   364.26         5.1016
   364.40         5.1217
   364.54         5.1582
   364.68         5.2186
   364.82         5.3092
   364.96         5.4320
   365.10         5.5837
   365.24         5.7566
   365.38         5.9391
   365.52         6.1177
   365.66         6.2788
   365.80         6.4119
   365.94         6.5115
   366.08         6.5781
   366.22         6.6153
   366.36         6.6290
   366.50         6.6244
   366.64         6.6038
   366.78         6.5675
   366.92         6.5160
   367.06         6.4511
   367.20         6.3753
   367.34         6.2897
   367.48         6.1944
   367.62         6.0913
   367.76         5.9856
   367.90         5.8856
   368.04         5.8003
   368.18         5.7372
   368.32         5.7024
   368.46         5.6991
   368.60         5.7273
   368.74         5.7842
   368.88         5.8630
   369.02         5.9541
   369.16         6.0453
   369.30         6.1231
   369.44         6.1756
   369.58         6.1942
   369.72         6.1750
   369.86         6.1204
   370.00         6.0407
   370.14         5.9521
   370.28         5.8720
   370.42         5.8144
   370.56         5.7853
   370.70         5.7810
   370.84         5.7907
   370.98         5.8031
   371.12         5.8086
   371.26         5.8014
   371.40         5.7773
   371.54         5.7337
   371.68         5.6703
   371.82         5.5897
   371.96         5.4957
   372.10         5.3931
   372.24         5.2862
   372.38         5.1788
   372.52         5.0746
   372.66         4.9759
   372.80         4.8830
   372.94         4.7946
   373.08         4.7082
   373.22         4.6207
   373.36         4.5303
   373.50         4.4396
   373.64         4.3545
   373.78         4.2820
   373.92         4.2298
   374.06         4.2049
   374.20         4.2128
   374.34         4.2557
   374.48         4.3297
   374.62         4.4263
   374.76         4.5361
   374.90         4.6528
   375.04         4.7727
   375.18         4.8922
   375.32         5.0062
   375.46         5.1081
   375.60         5.1911
   375.74         5.2513
   375.88         5.2902
   376.02         5.3157
   376.16         5.3402
   376.30         5.3777
   376.44         5.4407
   376.58         5.5379
   376.72         5.6709
   376.86         5.8356
   377.00         6.0224
   377.14         6.2182
   377.28         6.4090
   377.42         6.5810
   377.56         6.7214
   377.70         6.8190
   377.84         6.8677
   377.98         6.8665
   378.12         6.8191
   378.26         6.7323
   378.40         6.6140
   378.54         6.4727
   378.68         6.3181
   378.82         6.1618
   378.96         6.0166
   379.10         5.8964
   379.24         5.8129
   379.38         5.7730
   379.52         5.7766
   379.66         5.8192
   379.80         5.8929
   379.94         5.9875
   380.08         6.0900
   380.22         6.1858
   380.36         6.2604
   380.50         6.3022
   380.64         6.3025
   380.78         6.2558
   380.92         6.1610
   381.06         6.0228
   381.20         5.8502
   381.34         5.6541
   381.48         5.4453
   381.62         5.2334
   381.76         5.0264
   381.90         4.8293
   382.04         4.6454
   382.18         4.4780
   382.32         4.3318
   382.46         4.2092
   382.60         4.1091
   382.74         4.0283
   382.88         3.9664
   383.02         3.9273
   383.16         3.9170
   383.30         3.9402
   383.44         3.9989
   383.58         4.0925
   383.72         4.2172
   383.86         4.3664
   384.00         4.5319
   384.14         4.7056
   384.28         4.8790
   384.42         5.0426
   384.56         5.1859
   384.70         5.2994
   384.84         5.3770
   384.98         5.4182
   385.12         5.4272
   385.26         5.4121
   385.40         5.3832
   385.54         5.3515
   385.68         5.3256
   385.82         5.3092
   385.96         5.3023
   386.10         5.3043
   386.24         5.3149
   386.38         5.3324
   386.52         5.3538
   386.66         5.3753
   386.80         5.3927
   386.94         5.4038
   387.08         5.4079
   387.22         5.4061
   387.36         5.4004
   387.50         5.3940
   387.64         5.3908
   387.78         5.3948
   387.92         5.4090
   388.06         5.4355
   388.20         5.4757
   388.34         5.5298
   388.48         5.5977
   388.62         5.6796
   388.76         5.7749
   388.90         5.8796
   389.04         5.9863
   389.18         6.0864
   389.32         6.1736
   389.46         6.2444
   389.60         6.2984
   389.74         6.3385
   389.88         6.3697
   390.02         6.3990
   390.16         6.4341
   390.30         6.4816
   390.44         6.5440
   390.58         6.6177
   390.72         6.6940
   390.86         6.7609
   391.00         6.8072
   391.14         6.8242
   391.28         6.8048
   391.42         6.7435
   391.56         6.6361
   391.70         6.4808
   391.84         6.2803
   391.98         6.0422
   392.12         5.7781
   392.26         5.5010
   392.40         5.2230
   392.54         4.9558
   392.68         4.7108
   392.82         4.4985
   392.96         4.3285
   393.10         4.2086
   393.24         4.1447
   393.38         4.1408
   393.52         4.1988
   393.66         4.3176
   393.80         4.4920
   393.94         4.7123
   394.08         4.9659
   394.22         5.2392
   394.36         5.5189
   394.50         5.7925
   394.64         6.0485
   394.78         6.2738
   394.92         6.4540
   395.06         6.5765
   395.20         6.6323
   395.34         6.6169
   395.48         6.5306
   395.62         6.3793
   395.76         6.1745
   395.90         5.9330
   396.04         5.6752
   396.18         5.4239
   396.32         5.2024
   396.46         5.0334
   396.60         4.9361
   396.74         4.9234
   396.88         5.0002
   397.02         5.1634
   397.16         5.4019
   397.30         5.6983
   397.44         6.0321
   397.58         6.3832
   397.72         6.7343
   397.86         7.0719
   398.00         7.3858
   398.14         7.6687
   398.28         7.9155
   398.42         8.1230
   398.56         8.2916
   398.70         8.4255
   398.84         8.5321
   398.98         8.6197
   399.12         8.6944
   399.26         8.7583
   399.40         8.8119
   399.54         8.8567
   399.68         8.8964
   399.82         8.9359
   399.96         8.9805
   400.10         9.0346
   400.24         9.1000
   400.38         9.1756
   400.52         9.2583
   400.66         9.3436
   400.80         9.4272
   400.94         9.5056
   401.08         9.5765
   401.22         9.6396
   401.36         9.6958
   401.50         9.7448
   401.64         9.7827
   401.78         9.8029
   401.92         9.7998
   402.06         9.7714
   402.20         9.7202
   402.34         9.6531
   402.48         9.5793
   402.62         9.5082
   402.76         9.4471
   402.90         9.4006
   403.04         9.3694
   403.18         9.3496
   403.32         9.3350
   403.46         9.3209
   403.60         9.3052
   403.74         9.2888
   403.88         9.2734
   404.02         9.2591
   404.16         9.2434
   404.30         9.2235
   404.44         9.1990
   404.58         9.1732
   404.72         9.1517
   404.86         9.1388
   405.00         9.1331
   405.14         9.1278
   405.28         9.1148
   405.42         9.0881
   405.56         9.0468
   405.70         8.9934
   405.84         8.9330
   405.98         8.8744
   406.12         8.8290
   406.26         8.8036
   406.40         8.7976
   406.54         8.8055
   406.68         8.8214
   406.82         8.8430
   406.96         8.8703
   407.10         8.9044
   407.24         8.9464
   407.38         8.9984
   407.52         9.0628
   407.66         9.1427
   407.80         9.2418
   407.94         9.3619
   408.08         9.5006
   408.22         9.6502
   408.36         9.7983
   408.50         9.9313
   408.64         10.0378
   408.78         10.1079
   408.92         10.1334
   409.06         10.1112
   409.20         10.0466
   409.34         9.9510
   409.48         9.8382
   409.62         9.7214
   409.76         9.6130
   409.90         9.5256
   410.04         9.4710
   410.18         9.4572
   410.32         9.4874
   410.46         9.5583
   410.60         9.6614
   410.74         9.7859
   410.88         9.9194
   411.02         10.0503
   411.16         10.1696
   411.30         10.2704
   411.44         10.3480
   411.58         10.4004
   411.72         10.4282
   411.86         10.4325
   412.00         10.4136
   412.14         10.3726
   412.28         10.3142
   412.42         10.2462
   412.56         10.1780
   412.70         10.1181
   412.84         10.0712
   412.98         10.0363
   413.12         10.0095
   413.26         9.9884
   413.40         9.9733
   413.54         9.9652
   413.68         9.9643
   413.82         9.9693
   413.96         9.9778
   414.10         9.9859
   414.24         9.9890
   414.38         9.9840
   414.52         9.9702
   414.66         9.9511
   414.80         9.9341
   414.94         9.9266
   415.08         9.9336
   415.22         9.9566
   415.36         9.9940
   415.50         10.0422
   415.64         10.0971
   415.78         10.1563
   415.92         10.2156
   416.06         10.2677
   416.20         10.3031
   416.34         10.3144
   416.48         10.2977
   416.62         10.2526
   416.76         10.1820
   416.90         10.0921
   417.04         9.9925
   417.18         9.8938
   417.32         9.8054
   417.46         9.7326
   417.60         9.6780
   417.74         9.6426
   417.88         9.6266
   418.02         9.6293
   418.16         9.6484
   418.30         9.6790
   418.44         9.7129
   418.58         9.7403
   418.72         9.7538
   418.86         9.7501
   419.00         9.7291
   419.14         9.6932
   419.28         9.6470
   419.42         9.5974
   419.56         9.5526
   419.70         9.5212
   419.84         9.5116
   419.98         9.5297
   420.12         9.5777
   420.26         9.6540
   420.40         9.7532
   420.54         9.8670
   420.68         9.9849
   420.82         10.0957
   420.96         10.1877
   421.10         10.2496
   421.24         10.2705
   421.38         10.2416
   421.52         10.1597
   421.66         10.0300
   421.80         9.8658
   421.94         9.6841
   422.08         9.5016
   422.22         9.3323
   422.36         9.1859
   422.50         9.0690
   422.64         8.9850
   422.78         8.9362
   422.92         8.9248
   423.06         8.9526
   423.20         9.0193
   423.34         9.1192
   423.48         9.2408
   423.62         9.3677
   423.76         9.4824
   423.90         9.5719
   424.04         9.6308
   424.18         9.6616
   424.32         9.6704
   424.46         9.6627
   424.60         9.6408
   424.74         9.6040
   424.88         9.5528
   425.02         9.4928
   425.16         9.4346
   425.30         9.3902
   425.44         9.3695
   425.58         9.3761
   425.72         9.4064
   425.86         9.4497
   426.00         9.4915
   426.14         9.5180
   426.28         9.5208
   426.42         9.4990
   426.56         9.4579
   426.70         9.4059
   426.84         9.3511
   426.98         9.3013
   427.12         9.2622
   427.26         9.2362
   427.40         9.2241
   427.54         9.2264
   427.68         9.2408
   427.82         9.2608
   427.96         9.2773
   428.10         9.2818
   428.24         9.2680
   428.38         9.2314
   428.52         9.1696
   428.66         9.0825
   428.80         8.9732
   428.94         8.8465
   429.08         8.7068
   429.22         8.5570
   429.36         8.3982
   429.50         8.2314
   429.64         8.0579
   429.78         7.8810
   429.92         7.7082
   430.06         7.5514
   430.20         7.4269
   430.34         7.3534
   430.48         7.3503
   430.62         7.4328
   430.76         7.6064
   430.90         7.8641
   431.04         8.1865
   431.18         8.5448
   431.32         8.9079
   431.46         9.2488
   431.60         9.5482
   431.74         9.7949
   431.88         9.9848
   432.02         10.1206
   432.16         10.2112
   432.30         10.2700
   432.44         10.3115
   432.58         10.3472
   432.72         10.3837
   432.86         10.4230
   433.00         10.4641
   433.14         10.5026
   433.28         10.5327
   433.42         10.5496
   433.56         10.5521
   433.70         10.5427
   433.84         10.5261
   433.98         10.5093
   434.12         10.5007
   434.26         10.5081
   434.40         10.5351
   434.54         10.5820
   434.68         10.6457
   434.82         10.7205
   434.96         10.7997
   435.10         10.8783
   435.24         10.9553
   435.38         11.0333
   435.52         11.1166
   435.66         11.2082
   435.80         11.3078
   435.94         11.4116
   436.08         11.5117
   436.22         11.5966
   436.36         11.6541
   436.50         11.6753
   436.64         11.6577
   436.78         11.6049
   436.92         11.5207
   437.06         11.4055
   437.20         11.2585
   437.34         11.0819
   437.48         10.8841
   437.62         10.6774
   437.76         10.4757
   437.90         10.2922
   438.04         10.1388
   438.18         10.0257
   438.32         9.9609
   438.46         9.9495
   438.60         9.9926
   438.74         10.0858
   438.88         10.2196
   439.02         10.3805
   439.16         10.5500
   439.30         10.7062
   439.44         10.8291
   439.58         10.9052
   439.72         10.9326
   439.86         10.9219
   440.00         10.8916
   440.14         10.8584
   440.28         10.8337
   440.42         10.8251
   440.56         10.8399
   440.70         10.8849
   440.84         10.9637
   440.98         11.0737
   441.12         11.2070
   441.26         11.3524
   441.40         11.4975
   441.54         11.6312
   441.68         11.7454
   441.82         11.8358
   441.96         11.9017
   442.10         11.9448
   442.24         11.9662
   442.38         11.9674
   442.52         11.9507
   442.66         11.9200
   442.80         11.8796
   442.94         11.8340
   443.08         11.7899
   443.22         11.7548
   443.36         11.7338
   443.50         11.7281
   443.64         11.7368
   443.78         11.7589
   443.92         11.7928
   444.06         11.8333
   444.20         11.8711
   444.34         11.8950
   444.48         11.8943
   444.62         11.8615
   444.76         11.7939
   444.90         11.6947
   445.04         11.5729
   445.18         11.4415
   445.32         11.3134
   445.46         11.2001
   445.60         11.1111
   445.74         11.0561
   445.88         11.0430
   446.02         11.0761
   446.16         11.1553
   446.30         11.2766
   446.44         11.4321
   446.58         11.6110
   446.72         11.7993
   446.86         11.9827
   447.00         12.1498
   447.14         12.2949
   447.28         12.4171
   447.42         12.5177
   447.56         12.5976
   447.70         12.6572
   447.84         12.6975
   447.98         12.7199
   448.12         12.7256
   448.26         12.7162
   448.40         12.6956
   448.54         12.6698
   448.68         12.6456
   448.82         12.6289
   448.96         12.6241
   449.10         12.6348
   449.24         12.6636
   449.38         12.7114
   449.52         12.7784
   449.66         12.8646
   449.80         12.9674
   449.94         13.0801
   450.08         13.1917
   450.22         13.2903
   450.36         13.3671
   450.50         13.4185
   450.64         13.4446
   450.78         13.4480
   450.92         13.4331
   451.06         13.4049
   451.20         13.3663
   451.34         13.3169
   451.48         13.2525
   451.62         13.1691
   451.76         13.0653
   451.90         12.9416
   452.04         12.7999
   452.18         12.6435
   452.32         12.4795
   452.46         12.3192
   452.60         12.1762
   452.74         12.0634
   452.88         11.9911
   453.02         11.9657
   453.16         11.9884
   453.30         12.0536
   453.44         12.1493
   453.58         12.2591
   453.72         12.3661
   453.86         12.4562
   454.00         12.5199
   454.14         12.5534
   454.28         12.5606
   454.42         12.5507
   454.56         12.5350
   454.70         12.5247
   454.84         12.5299
   454.98         12.5582
   455.12         12.6117
   455.26         12.6869
   455.40         12.7764
   455.54         12.8730
   455.68         12.9704
   455.82         13.0616
   455.96         13.1399
   456.10         13.2012
   456.24         13.2450
   456.38         13.2736
   456.52         13.2895
   456.66         13.2933
   456.80         13.2852
   456.94         13.2665
   457.08         13.2386
   457.22         13.2013
   457.36         13.1541
   457.50         13.0978
   457.64         13.0346
   457.78         12.9682
   457.92         12.9047
   458.06         12.8505
   458.20         12.8102
   458.34         12.7843
   458.48         12.7709
   458.62         12.7676
   458.76         12.7725
   458.90         12.7828
   459.04         12.7952
   459.18         12.8064
   459.32         12.8154
   459.46         12.8255
   459.60         12.8420
   459.74         12.8699
   459.88         12.9121
