# File HD24189
# Wavelength [nm]    Normalized Amplitude
   349.70         13.7862
   349.84         13.7763
   349.98         13.7772
   350.12         13.7797
   350.26         13.7778
   350.40         13.7697
   350.54         13.7562
   350.68         13.7402
   350.82         13.7250
   350.96         13.7137
   351.10         13.7093
   351.24         13.7137
   351.38         13.7250
   351.52         13.7402
   351.66         13.7562
   351.80         13.7697
   351.94         13.7778
   352.08         13.7797
   352.22         13.7772
   352.36         13.7763
   352.50         13.7862
   352.64         13.8166
   352.78         13.8776
   352.92         13.9792
   353.06         14.1251
   353.20         14.3113
   353.34         14.5286
   353.48         14.7641
   353.62         15.0020
   353.76         15.2246
   353.90         15.4168
   354.04         15.5669
   354.18         15.6680
   354.32         15.7179
   354.46         15.7179
   354.60         15.6733
   354.74         15.5936
   354.88         15.4910
   355.02         15.3798
   355.16         15.2739
   355.30         15.1805
   355.44         15.0971
   355.58         15.0160
   355.72         14.9304
   355.86         14.8329
   356.00         14.7141
   356.14         14.5662
   356.28         14.3855
   356.42         14.1753
   356.56         13.9468
   356.70         13.7144
   356.84         13.4919
   356.98         13.2905
   357.12         13.1167
   357.26         12.9708
   357.40         12.8458
   357.54         12.7321
   357.68         12.6230
   357.82         12.5169
   357.96         12.4195
   358.10         12.3439
   358.24         12.3083
   358.38         12.3271
   358.52         12.4041
   358.66         12.5391
   358.80         12.7321
   358.94         12.9775
   359.08         13.2604
   359.22         13.5562
   359.36         13.8351
   359.50         14.0674
   359.64         14.2310
   359.78         14.3129
   359.92         14.3099
   360.06         14.2310
   360.20         14.0961
   360.34         13.9305
   360.48         13.7575
   360.62         13.5941
   360.76         13.4506
   360.90         13.3325
   361.04         13.2433
   361.18         13.1883
   361.32         13.1774
   361.46         13.2187
   361.60         13.3118
   361.74         13.4478
   361.88         13.6115
   362.02         13.7843
   362.16         13.9493
   362.30         14.0936
   362.44         14.2080
   362.58         14.2890
   362.72         14.3404
   362.86         14.3703
   363.00         14.3880
   363.14         14.3990
   363.28         14.4052
   363.42         14.4077
   363.56         14.4071
   363.70         14.4028
   363.84         14.3934
   363.98         14.3786
   364.12         14.3586
   364.26         14.3345
   364.40         14.3099
   364.54         14.2941
   364.68         14.3004
   364.82         14.3433
   364.96         14.4333
   365.10         14.5740
   365.24         14.7615
   365.38         14.9838
   365.52         15.2197
   365.66         15.4417
   365.80         15.6242
   365.94         15.7526
   366.08         15.8242
   366.22         15.8449
   366.36         15.8256
   366.50         15.7800
   366.64         15.7216
   366.78         15.6599
   366.92         15.6015
   367.06         15.5513
   367.20         15.5124
   367.34         15.4838
   367.48         15.4599
   367.62         15.4323
   367.76         15.3936
   367.90         15.3411
   368.04         15.2788
   368.18         15.2155
   368.32         15.1620
   368.46         15.1297
   368.60         15.1294
   368.74         15.1679
   368.88         15.2473
   369.02         15.3645
   369.16         15.5117
   369.30         15.6761
   369.44         15.8397
   369.58         15.9814
   369.72         16.0807
   369.86         16.1210
   370.00         16.0948
   370.14         16.0082
   370.28         15.8825
   370.42         15.7498
   370.56         15.6434
   370.70         15.5874
   370.84         15.5870
   370.98         15.6308
   371.12         15.7020
   371.26         15.7848
   371.40         15.8664
   371.54         15.9343
   371.68         15.9751
   371.82         15.9781
   371.96         15.9383
   372.10         15.8566
   372.24         15.7375
   372.38         15.5860
   372.52         15.4078
   372.66         15.2149
   372.80         15.0246
   372.94         14.8530
   373.08         14.7108
   373.22         14.6022
   373.36         14.5240
   373.50         14.4687
   373.64         14.4313
   373.78         14.4109
   373.92         14.4076
   374.06         14.4215
   374.20         14.4554
   374.34         14.5158
   374.48         14.6100
   374.62         14.7389
   374.76         14.8936
   374.90         15.0622
   375.04         15.2400
   375.18         15.4311
   375.32         15.6410
   375.46         15.8670
   375.60         16.0947
   375.74         16.3017
   375.88         16.4608
   376.02         16.5489
   376.16         16.5581
   376.30         16.5007
   376.44         16.4055
   376.58         16.3109
   376.72         16.2564
   376.86         16.2731
   377.00         16.3774
   377.14         16.5732
   377.28         16.8558
   377.42         17.2123
   377.56         17.6216
   377.70         18.0547
   377.84         18.4750
   377.98         18.8441
   378.12         19.1266
   378.26         19.2931
   378.40         19.3232
   378.54         19.2087
   378.68         18.9580
   378.82         18.5956
   378.96         18.1583
   379.10         17.6897
   379.24         17.2365
   379.38         16.8448
   379.52         16.5535
   379.66         16.3899
   379.80         16.3685
   379.94         16.4894
   380.08         16.7356
   380.22         17.0757
   380.36         17.4697
   380.50         17.8751
   380.64         18.2520
   380.78         18.5630
   380.92         18.7766
   381.06         18.8732
   381.20         18.8468
   381.34         18.7028
   381.48         18.4555
   381.62         18.1241
   381.76         17.7290
   381.90         17.2891
   382.04         16.8198
   382.18         16.3306
   382.32         15.8270
   382.46         15.3160
   382.60         14.8066
   382.74         14.3084
   382.88         13.8350
   383.02         13.4101
   383.16         13.0654
   383.30         12.8321
   383.44         12.7350
   383.58         12.7904
   383.72         13.0050
   383.86         13.3721
   384.00         13.8711
   384.14         14.4718
   384.28         15.1383
   384.42         15.8309
   384.56         16.5084
   384.70         17.1305
   384.84         17.6612
   384.98         18.0781
   385.12         18.3789
   385.26         18.5775
   385.40         18.6960
   385.54         18.7610
   385.68         18.7988
   385.82         18.8282
   385.96         18.8560
   386.10         18.8788
   386.24         18.8885
   386.38         18.8783
   386.52         18.8426
   386.66         18.7753
   386.80         18.6715
   386.94         18.5292
   387.08         18.3498
   387.22         18.1375
   387.36         17.8976
   387.50         17.6362
   387.64         17.3611
   387.78         17.0799
   387.92         16.7979
   388.06         16.5212
   388.20         16.2596
   388.34         16.0233
   388.48         15.8224
   388.62         15.6704
   388.76         15.5859
   388.90         15.5874
   389.04         15.6855
   389.18         15.8768
   389.32         16.1447
   389.46         16.4660
   389.60         16.8165
   389.74         17.1728
   389.88         17.5152
   390.02         17.8293
   390.16         18.1078
   390.30         18.3504
   390.44         18.5625
   390.58         18.7514
   390.72         18.9222
   390.86         19.0729
   391.00         19.1960
   391.14         19.2835
   391.28         19.3280
   391.42         19.3187
   391.56         19.2389
   391.70         19.0668
   391.84         18.7777
   391.98         18.3490
   392.12         17.7667
   392.26         17.0288
   392.40         16.1482
   392.54         15.1565
   392.68         14.1043
   392.82         13.0563
   392.96         12.0835
   393.10         11.2562
   393.24         10.6354
   393.38         10.2677
   393.52         10.1813
   393.66         10.3833
   393.80         10.8578
   393.94         11.5666
   394.08         12.4510
   394.22         13.4384
   394.36         14.4537
   394.50         15.4290
   394.64         16.3106
   394.78         17.0629
   394.92         17.6659
   395.06         18.1096
   395.20         18.3888
   395.34         18.4973
   395.48         18.4240
   395.62         18.1553
   395.76         17.6843
   395.90         17.0206
   396.04         16.1966
   396.18         15.2673
   396.32         14.3039
   396.46         13.3867
   396.60         12.5972
   396.74         12.0091
   396.88         11.6802
   397.02         11.6472
   397.16         11.9223
   397.30         12.4894
   397.44         13.3053
   397.58         14.3033
   397.72         15.4024
   397.86         16.5203
   398.00         17.5836
   398.14         18.5372
   398.28         19.3495
   398.42         20.0119
   398.56         20.5329
   398.70         20.9318
   398.84         21.2338
   398.98         21.4665
   399.12         21.6551
   399.26         21.8169
   399.40         21.9595
   399.54         22.0841
   399.68         22.1909
   399.82         22.2821
   399.96         22.3605
   400.10         22.4284
   400.24         22.4875
   400.38         22.5403
   400.52         22.5904
   400.66         22.6422
   400.80         22.6997
   400.94         22.7637
   401.08         22.8334
   401.22         22.9072
   401.36         22.9845
   401.50         23.0648
   401.64         23.1454
   401.78         23.2168
   401.92         23.2658
   402.06         23.2826
   402.20         23.2641
   402.34         23.2132
   402.48         23.1388
   402.62         23.0530
   402.76         22.9665
   402.90         22.8858
   403.04         22.8135
   403.18         22.7498
   403.32         22.6911
   403.46         22.6316
   403.60         22.5684
   403.74         22.5048
   403.88         22.4462
   404.02         22.3976
   404.16         22.3594
   404.30         22.3256
   404.44         22.2866
   404.58         22.2352
   404.72         22.1716
   404.86         22.1023
   405.00         22.0337
   405.14         21.9668
   405.28         21.8947
   405.42         21.8087
   405.56         21.7050
   405.70         21.5881
   405.84         21.4672
   405.98         21.3527
   406.12         21.2564
   406.26         21.1892
   406.40         21.1521
   406.54         21.1344
   406.68         21.1221
   406.82         21.1049
   406.96         21.0814
   407.10         21.0570
   407.24         21.0392
   407.38         21.0357
   407.52         21.0527
   407.66         21.0945
   407.80         21.1648
   407.94         21.2676
   408.08         21.4040
   408.22         21.5664
   408.36         21.7361
   408.50         21.8863
   408.64         21.9873
   408.78         22.0101
   408.92         21.9274
   409.06         21.7208
   409.20         21.3907
   409.34         20.9600
   409.48         20.4672
   409.62         19.9561
   409.76         19.4714
   409.90         19.0564
   410.04         18.7518
   410.18         18.5909
   410.32         18.5936
   410.46         18.7625
   410.60         19.0819
   410.74         19.5209
   410.88         20.0385
   411.02         20.5881
   411.16         21.1240
   411.30         21.6081
   411.44         22.0130
   411.58         22.3249
   411.72         22.5444
   411.86         22.6815
   412.00         22.7490
   412.14         22.7592
   412.28         22.7247
   412.42         22.6599
   412.56         22.5827
   412.70         22.5133
   412.84         22.4699
   412.98         22.4620
   413.12         22.4877
   413.26         22.5381
   413.40         22.6051
   413.54         22.6834
   413.68         22.7684
   413.82         22.8548
   413.96         22.9370
   414.10         23.0081
   414.24         23.0602
   414.38         23.0866
   414.52         23.0846
   414.66         23.0583
   414.80         23.0164
   414.94         22.9693
   415.08         22.9292
   415.22         22.9081
   415.36         22.9132
   415.50         22.9435
   415.64         22.9932
   415.78         23.0575
   415.92         23.1317
   416.06         23.2051
   416.20         23.2606
   416.34         23.2797
   416.48         23.2494
   416.62         23.1638
   416.76         23.0255
   416.90         22.8444
   417.04         22.6367
   417.18         22.4219
   417.32         22.2184
   417.46         22.0397
   417.60         21.8947
   417.74         21.7883
   417.88         21.7219
   418.02         21.6922
   418.16         21.6938
   418.30         21.7211
   418.44         21.7649
   418.58         21.8112
   418.72         21.8480
   418.86         21.8704
   419.00         21.8789
   419.14         21.8756
   419.28         21.8624
   419.42         21.8421
   419.56         21.8181
   419.70         21.7929
   419.84         21.7700
   419.98         21.7545
   420.12         21.7552
   420.26         21.7812
   420.40         21.8380
   420.54         21.9252
   420.68         22.0376
   420.82         22.1673
   420.96         22.3031
   421.10         22.4293
   421.24         22.5276
   421.38         22.5788
   421.52         22.5659
   421.66         22.4807
   421.80         22.3290
   421.94         22.1290
   422.08         21.9042
   422.22         21.6778
   422.36         21.4688
   422.50         21.2916
   422.64         21.1556
   422.78         21.0647
   422.92         21.0178
   423.06         21.0111
   423.20         21.0407
   423.34         21.1018
   423.48         21.1850
   423.62         21.2743
   423.76         21.3503
   423.90         21.3979
   424.04         21.4132
   424.18         21.4036
   424.32         21.3826
   424.46         21.3619
   424.60         21.3471
   424.74         21.3346
   424.88         21.3160
   425.02         21.2852
   425.16         21.2444
   425.30         21.2023
   425.44         21.1701
   425.58         21.1561
   425.72         21.1631
   425.86         21.1866
   426.00         21.2149
   426.14         21.2343
   426.28         21.2333
   426.42         21.2079
   426.56         21.1628
   426.70         21.1070
   426.84         21.0479
   426.98         20.9901
   427.12         20.9374
   427.26         20.8930
   427.40         20.8569
   427.54         20.8290
   427.68         20.8092
   427.82         20.7935
   427.96         20.7734
   428.10         20.7386
   428.24         20.6827
   428.38         20.6022
   428.52         20.4934
   428.66         20.3529
   428.80         20.1789
   428.94         19.9707
   429.08         19.7294
   429.22         19.4590
   429.36         19.1648
   429.50         18.8516
   429.64         18.5246
   429.78         18.1924
   429.92         17.8671
   430.06         17.5643
   430.20         17.3034
   430.34         17.1074
   430.48         17.0020
   430.62         17.0119
   430.76         17.1534
   430.90         17.4278
   431.04         17.8164
   431.18         18.2840
   431.32         18.7866
   431.46         19.2811
   431.60         19.7340
   431.74         20.1247
   431.88         20.4429
   432.02         20.6835
   432.16         20.8457
   432.30         20.9348
   432.44         20.9620
   432.58         20.9373
   432.72         20.8648
   432.86         20.7425
   433.00         20.5670
   433.14         20.3385
   433.28         20.0639
   433.42         19.7563
   433.56         19.4345
   433.70         19.1228
   433.84         18.8494
   433.98         18.6415
   434.12         18.5228
   434.26         18.5103
   434.40         18.6103
   434.54         18.8170
   434.68         19.1139
   434.82         19.4770
   434.96         19.8785
   435.10         20.2903
   435.24         20.6880
   435.38         21.0551
   435.52         21.3849
   435.66         21.6787
   435.80         21.9434
   435.94         22.1846
   436.08         22.4010
   436.22         22.5832
   436.36         22.7171
   436.50         22.7902
   436.64         22.7986
   436.78         22.7497
   436.92         22.6581
   437.06         22.5373
   437.20         22.3946
   437.34         22.2317
   437.48         22.0522
   437.62         21.8644
   437.76         21.6789
   437.90         21.5052
   438.04         21.3500
   438.18         21.2186
   438.32         21.1175
   438.46         21.0546
   438.60         21.0367
   438.74         21.0661
   438.88         21.1395
   439.02         21.2505
   439.16         21.3913
   439.30         21.5498
   439.44         21.7084
   439.58         21.8480
   439.72         21.9542
   439.86         22.0217
   440.00         22.0566
   440.14         22.0723
   440.28         22.0816
   440.42         22.0921
   440.56         22.1081
   440.70         22.1337
   440.84         22.1735
   440.98         22.2309
   441.12         22.3054
   441.26         22.3921
   441.40         22.4828
   441.54         22.5701
   441.68         22.6503
   441.82         22.7230
   441.96         22.7879
   442.10         22.8437
   442.24         22.8890
   442.38         22.9222
   442.52         22.9433
   442.66         22.9547
   442.80         22.9595
   442.94         22.9599
   443.08         22.9557
   443.22         22.9469
   443.36         22.9358
   443.50         22.9242
   443.64         22.9124
   443.78         22.9007
   443.92         22.8915
   444.06         22.8886
   444.20         22.8904
   444.34         22.8890
   444.48         22.8729
   444.62         22.8318
   444.76         22.7595
   444.90         22.6545
   445.04         22.5210
   445.18         22.3683
   445.32         22.2085
   445.46         22.0532
   445.60         21.9118
   445.74         21.7931
   445.88         21.7083
   446.02         21.6685
   446.16         21.6813
   446.30         21.7505
   446.44         21.8756
   446.58         22.0507
   446.72         22.2614
   446.86         22.4872
   447.00         22.7065
   447.14         22.9024
   447.28         23.0651
   447.42         23.1909
   447.56         23.2815
   447.70         23.3394
   447.84         23.3659
   447.98         23.3625
   448.12         23.3322
   448.26         23.2812
   448.40         23.2189
   448.54         23.1573
   448.68         23.1076
   448.82         23.0782
   448.96         23.0735
   449.10         23.0953
   449.24         23.1429
   449.38         23.2141
   449.52         23.3069
   449.66         23.4187
   449.80         23.5473
   449.94         23.6888
   450.08         23.8347
   450.22         23.9717
   450.36         24.0863
   450.50         24.1691
   450.64         24.2156
   450.78         24.2242
   450.92         24.1950
   451.06         24.1310
   451.20         24.0375
   451.34         23.9197
   451.48         23.7802
   451.62         23.6196
   451.76         23.4408
   451.90         23.2473
   452.04         23.0419
   452.18         22.8285
   452.32         22.6133
   452.46         22.4067
   452.60         22.2238
   452.74         22.0810
   452.88         21.9904
   453.02         21.9586
   453.16         21.9840
   453.30         22.0578
   453.44         22.1666
   453.58         22.2938
   453.72         22.4207
   453.86         22.5300
   454.00         22.6074
   454.14         22.6439
   454.28         22.6372
   454.42         22.5930
   454.56         22.5224
   454.70         22.4420
   454.84         22.3725
   454.98         22.3332
   455.12         22.3364
   455.26         22.3851
   455.40         22.4733
   455.54         22.5903
   455.68         22.7249
   455.82         22.8665
   455.96         23.0043
   456.10         23.1286
   456.24         23.2342
   456.38         23.3203
   456.52         23.3884
   456.66         23.4388
   456.80         23.4689
   456.94         23.4760
