# File HD242935
# Wavelength [nm]    Normalized Amplitude
   349.70         162.9376
   349.84         163.1164
   349.98         163.2917
   350.12         163.4460
   350.26         163.5627
   350.40         163.6242
   350.54         163.6194
   350.68         163.5561
   350.82         163.4698
   350.96         163.4021
   351.10         163.3772
   351.24         163.4021
   351.38         163.4698
   351.52         163.5561
   351.66         163.6194
   351.80         163.6242
   351.94         163.5627
   352.08         163.4460
   352.22         163.2917
   352.36         163.1164
   352.50         162.9376
   352.64         162.7776
   352.78         162.6550
   352.92         162.5763
   353.06         162.5361
   353.20         162.5200
   353.34         162.5137
   353.48         162.5028
   353.62         162.4594
   353.76         162.3326
   353.90         162.0610
   354.04         161.6003
   354.18         160.9303
   354.32         160.0653
   354.46         159.0671
   354.60         158.0259
   354.74         157.0254
   354.88         156.1260
   355.02         155.3665
   355.16         154.7764
   355.30         154.3697
   355.44         154.1312
   355.58         154.0213
   355.72         153.9797
   355.86         153.9306
   356.00         153.8078
   356.14         153.5756
   356.28         153.2172
   356.42         152.7173
   356.56         152.0810
   356.70         151.3480
   356.84         150.5745
   356.98         149.8280
   357.12         149.1684
   357.26         148.6185
   357.40         148.1635
   357.54         147.7735
   357.68         147.4110
   357.82         147.0318
   357.96         146.5996
   358.10         146.0986
   358.24         145.5310
   358.38         144.9089
   358.52         144.2613
   358.66         143.6382
   358.80         143.0861
   358.94         142.6217
   359.08         142.2442
   359.22         141.9576
   359.36         141.7699
   359.50         141.6759
   359.64         141.6481
   359.78         141.6475
   359.92         141.6370
   360.06         141.5938
   360.20         141.5155
   360.34         141.4119
   360.48         141.2984
   360.62         141.1950
   360.76         141.1159
   360.90         141.0611
   361.04         141.0237
   361.18         140.9856
   361.32         140.9168
   361.46         140.7853
   361.60         140.5656
   361.74         140.2480
   361.88         139.8366
   362.02         139.3433
   362.16         138.7902
   362.30         138.2195
   362.44         137.6843
   362.58         137.2231
   362.72         136.8526
   362.86         136.5697
   363.00         136.3564
   363.14         136.1992
   363.28         136.1032
   363.42         136.0806
   363.56         136.1378
   363.70         136.2756
   363.84         136.4900
   363.98         136.7856
   364.12         137.1759
   364.26         137.6618
   364.40         138.2302
   364.54         138.8588
   364.68         139.5247
   364.82         140.2036
   364.96         140.8474
   365.10         141.3779
   365.24         141.7229
   365.38         141.8481
   365.52         141.7557
   365.66         141.4774
   365.80         141.0639
   365.94         140.5692
   366.08         140.0320
   366.22         139.4731
   366.36         138.9075
   366.50         138.3456
   366.64         137.7963
   366.78         137.2678
   366.92         136.7666
   367.06         136.3014
   367.20         135.8817
   367.34         135.5166
   367.48         135.2128
   367.62         134.9777
   367.76         134.8302
   367.90         134.7872
   368.04         134.8403
   368.18         134.9615
   368.32         135.1114
   368.46         135.2424
   368.60         135.3048
   368.74         135.2534
   368.88         135.0642
   369.02         134.7405
   369.16         134.2997
   369.30         133.7635
   369.44         133.1551
   369.58         132.4991
   369.72         131.8227
   369.86         131.1580
   370.00         130.5420
   370.14         130.0045
   370.28         129.5582
   370.42         129.2003
   370.56         128.9235
   370.70         128.7300
   370.84         128.6192
   370.98         128.5642
   371.12         128.5302
   371.26         128.5003
   371.40         128.4730
   371.54         128.4436
   371.68         128.3976
   371.82         128.3200
   371.96         128.2040
   372.10         128.0485
   372.24         127.8476
   372.38         127.5921
   372.52         127.2813
   372.66         126.9296
   372.80         126.5622
   372.94         126.2083
   373.08         125.8957
   373.22         125.6472
   373.36         125.4721
   373.50         125.3621
   373.64         125.3111
   373.78         125.3252
   373.92         125.3937
   374.06         125.4590
   374.20         125.4263
   374.34         125.2130
   374.48         124.7778
   374.62         124.1198
   374.76         123.2710
   374.90         122.2872
   375.04         121.2521
   375.18         120.2713
   375.32         119.4507
   375.46         118.8682
   375.60         118.5479
   375.74         118.4610
   375.88         118.5346
   376.02         118.6657
   376.16         118.7502
   376.30         118.7134
   376.44         118.5260
   376.58         118.2026
   376.72         117.8014
   376.86         117.4268
   377.00         117.2181
   377.14         117.3050
   377.28         117.7764
   377.42         118.6736
   377.56         119.9841
   377.70         121.6415
   377.84         123.5228
   377.98         125.4594
   378.12         127.2591
   378.26         128.7282
   378.40         129.6949
   378.54         130.0270
   378.68         129.6624
   378.82         128.6315
   378.96         127.0513
   379.10         125.0978
   379.24         122.9683
   379.38         120.8595
   379.52         118.9568
   379.66         117.4235
   379.80         116.3846
   379.94         115.9175
   380.08         116.0479
   380.22         116.7470
   380.36         117.9298
   380.50         119.4664
   380.64         121.2089
   380.78         123.0083
   380.92         124.7245
   381.06         126.2444
   381.20         127.5037
   381.34         128.4921
   381.48         129.2364
   381.62         129.7729
   381.76         130.1224
   381.90         130.2862
   382.04         130.2437
   382.18         129.9445
   382.32         129.3198
   382.46         128.3098
   382.60         126.8904
   382.74         125.1002
   382.88         123.0392
   383.02         120.8479
   383.16         118.6967
   383.30         116.7725
   383.44         115.2529
   383.58         114.2775
   383.72         113.9289
   383.86         114.2229
   384.00         115.1115
   384.14         116.4965
   384.28         118.2400
   384.42         120.1783
   384.56         122.1354
   384.70         123.9332
   384.84         125.4215
   384.98         126.5198
   385.12         127.2334
   385.26         127.6341
   385.40         127.8172
   385.54         127.8607
   385.68         127.8062
   385.82         127.6679
   385.96         127.4532
   386.10         127.1677
   386.24         126.8095
   386.38         126.3723
   386.52         125.8542
   386.66         125.2632
   386.80         124.6119
   386.94         123.9054
   387.08         123.1323
   387.22         122.2672
   387.36         121.2841
   387.50         120.1568
   387.64         118.8504
   387.78         117.3304
   387.92         115.5781
   388.06         113.6076
   388.20         111.4817
   388.34         109.3104
   388.48         107.2380
   388.62         105.4272
   388.76         104.0337
   388.90         103.1903
   389.04         102.9888
   389.18         103.4614
   389.32         104.5758
   389.46         106.2330
   389.60         108.2736
   389.74         110.5014
   389.88         112.7132
   390.02         114.7214
   390.16         116.3727
   390.30         117.5811
   390.44         118.3381
   390.58         118.6867
   390.72         118.6957
   390.86         118.4418
   391.00         118.0017
   391.14         117.4477
   391.28         116.8403
   391.42         116.2287
   391.56         115.6503
   391.70         115.1266
   391.84         114.6709
   391.98         114.2914
   392.12         113.9829
   392.26         113.7234
   392.40         113.4907
   392.54         113.2790
   392.68         113.0921
   392.82         112.9359
   392.96         112.8152
   393.10         112.7264
   393.24         112.6638
   393.38         112.6327
   393.52         112.6427
   393.66         112.7016
   393.80         112.8081
   393.94         112.9519
   394.08         113.1198
   394.22         113.2904
   394.36         113.4328
   394.50         113.5128
   394.64         113.4976
   394.78         113.3604
   394.92         113.0877
   395.06         112.6826
   395.20         112.1504
   395.34         111.4787
   395.48         110.6351
   395.62         109.5701
   395.76         108.2258
   395.90         106.5596
   396.04         104.5712
   396.18         102.3149
   396.32         99.8993
   396.46         97.4737
   396.60         95.2041
   396.74         93.2552
   396.88         91.7778
   397.02         90.8920
   397.16         90.6660
   397.30         91.1038
   397.44         92.1482
   397.58         93.6903
   397.72         95.5833
   397.86         97.6614
   398.00         99.7530
   398.14         101.6911
   398.28         103.3356
   398.42         104.6071
   398.56         105.5010
   398.70         106.0645
   398.84         106.3640
   398.98         106.4648
   399.12         106.4228
   399.26         106.2825
   399.40         106.0869
   399.54         105.8746
   399.68         105.6690
   399.82         105.4819
   399.96         105.3224
   400.10         105.1936
   400.24         105.0840
   400.38         104.9715
   400.52         104.8354
   400.66         104.6571
   400.80         104.4209
   400.94         104.1279
   401.08         103.7946
   401.22         103.4310
   401.36         103.0268
   401.50         102.5591
   401.64         102.0117
   401.78         101.3850
   401.92         100.6991
   402.06         99.9939
   402.20         99.3191
   402.34         98.7225
   402.48         98.2458
   402.62         97.9196
   402.76         97.7605
   402.90         97.7768
   403.04         97.9721
   403.18         98.3393
   403.32         98.8486
   403.46         99.4498
   403.60         100.0846
   403.74         100.6957
   403.88         101.2358
   404.02         101.6798
   404.16         102.0284
   404.30         102.3022
   404.44         102.5218
   404.58         102.6945
   404.72         102.8168
   404.86         102.8830
   405.00         102.8912
   405.14         102.8467
   405.28         102.7611
   405.42         102.6494
   405.56         102.5237
   405.70         102.3894
   405.84         102.2465
   405.98         102.0963
   406.12         101.9400
   406.26         101.7726
   406.40         101.5825
   406.54         101.3595
   406.68         101.1010
   406.82         100.8078
   406.96         100.4805
   407.10         100.1238
   407.24         99.7505
   407.38         99.3835
   407.52         99.0489
   407.66         98.7604
   407.80         98.5137
   407.94         98.2905
   408.08         98.0625
   408.22         97.7934
   408.36         97.4431
   408.50         96.9725
   408.64         96.3445
   408.78         95.5194
   408.92         94.4568
   409.06         93.1291
   409.20         91.5426
   409.34         89.7471
   409.48         87.8312
   409.62         85.9151
   409.76         84.1372
   409.90         82.6404
   410.04         81.5513
   410.18         80.9539
   410.32         80.8794
   410.46         81.3118
   410.60         82.1945
   410.74         83.4342
   410.88         84.9062
   411.02         86.4680
   411.16         87.9812
   411.30         89.3312
   411.44         90.4405
   411.58         91.2773
   411.72         91.8608
   411.86         92.2524
   412.00         92.5275
   412.14         92.7476
   412.28         92.9510
   412.42         93.1540
   412.56         93.3576
   412.70         93.5498
   412.84         93.7123
   412.98         93.8281
   413.12         93.8802
   413.26         93.8543
   413.40         93.7402
   413.54         93.5321
   413.68         93.2377
   413.82         92.8792
   413.96         92.4858
   414.10         92.0851
   414.24         91.6987
   414.38         91.3435
   414.52         91.0312
   414.66         90.7676
   414.80         90.5574
   414.94         90.4071
   415.08         90.3247
   415.22         90.3146
   415.36         90.3725
   415.50         90.4828
   415.64         90.6189
   415.78         90.7501
   415.92         90.8532
   416.06         90.9110
   416.20         90.9104
   416.34         90.8464
   416.48         90.7184
   416.62         90.5275
   416.76         90.2784
   416.90         89.9851
   417.04         89.6708
   417.18         89.3570
   417.32         89.0606
   417.46         88.7964
   417.60         88.5763
   417.74         88.4067
   417.88         88.2843
   418.02         88.1944
   418.16         88.1152
   418.30         88.0229
   418.44         87.8956
   418.58         87.7149
   418.72         87.4638
   418.86         87.1281
   419.00         86.7039
   419.14         86.2045
   419.28         85.6612
   419.42         85.1184
   419.56         84.6264
   419.70         84.2302
   419.84         83.9637
   419.98         83.8500
   420.12         83.8921
   420.26         84.0672
   420.40         84.3376
   420.54         84.6594
   420.68         84.9868
   420.82         85.2791
   420.96         85.5068
   421.10         85.6527
   421.24         85.7137
   421.38         85.6994
   421.52         85.6308
   421.66         85.5377
   421.80         85.4507
   421.94         85.3922
   422.08         85.3712
   422.22         85.3849
   422.36         85.4198
   422.50         85.4549
   422.64         85.4680
   422.78         85.4428
   422.92         85.3790
   423.06         85.2932
   423.20         85.2003
   423.34         85.1050
   423.48         85.0086
   423.62         84.9101
   423.76         84.8033
   423.90         84.6795
   424.04         84.5314
   424.18         84.3559
   424.32         84.1549
   424.46         83.9325
   424.60         83.6920
   424.74         83.4355
   424.88         83.1671
   425.02         82.8976
   425.16         82.6447
   425.30         82.4281
   425.44         82.2608
   425.58         82.1461
   425.72         82.0796
   425.86         82.0511
   426.00         82.0523
   426.14         82.0769
   426.28         82.1136
   426.42         82.1481
   426.56         82.1697
   426.70         82.1729
   426.84         82.1575
   426.98         82.1303
   427.12         82.1008
   427.26         82.0779
   427.40         82.0680
   427.54         82.0737
   427.68         82.0943
   427.82         82.1256
   427.96         82.1602
   428.10         82.1887
   428.24         82.2046
   428.38         82.2050
   428.52         82.1863
   428.66         82.1440
   428.80         82.0781
   428.94         81.9947
   429.08         81.9039
   429.22         81.8167
   429.36         81.7398
   429.50         81.6715
   429.64         81.6019
   429.78         81.5163
   429.92         81.4019
   430.06         81.2520
   430.20         81.0651
   430.34         80.8453
   430.48         80.6044
   430.62         80.3577
   430.76         80.1196
   430.90         79.9023
   431.04         79.7172
   431.18         79.5732
   431.32         79.4742
   431.46         79.4173
   431.60         79.3887
   431.74         79.3656
   431.88         79.3191
   432.02         79.2183
   432.16         79.0394
   432.30         78.7676
   432.44         78.3860
   432.58         77.8678
   432.72         77.1745
   432.86         76.2647
   433.00         75.1135
   433.14         73.7287
   433.28         72.1576
   433.42         70.4822
   433.56         68.8066
   433.70         67.2442
   433.84         65.9060
   433.98         64.8894
   434.12         64.2677
   434.26         64.0824
   434.40         64.3388
   434.54         65.0066
   434.68         66.0236
   434.82         67.3027
   434.96         68.7335
   435.10         70.1916
   435.24         71.5605
   435.38         72.7522
   435.52         73.7215
   435.66         74.4670
   435.80         75.0148
   435.94         75.3949
   436.08         75.6301
   436.22         75.7415
   436.36         75.7550
   436.50         75.6956
   436.64         75.5849
   436.78         75.4414
   436.92         75.2784
   437.06         75.1049
   437.20         74.9260
   437.34         74.7431
   437.48         74.5522
   437.62         74.3443
   437.76         74.1133
   437.90         73.8621
   438.04         73.6038
   438.18         73.3556
   438.32         73.1322
   438.46         72.9429
   438.60         72.7961
   438.74         72.7056
   438.88         72.6869
   439.02         72.7458
   439.16         72.8753
   439.30         73.0637
   439.44         73.2949
   439.58         73.5445
   439.72         73.7851
   439.86         73.9926
   440.00         74.1465
   440.14         74.2289
   440.28         74.2298
   440.42         74.1493
   440.56         73.9921
   440.70         73.7631
   440.84         73.4692
   440.98         73.1215
   441.12         72.7337
   441.26         72.3212
   441.40         71.8999
   441.54         71.4859
   441.68         71.0921
   441.82         70.7261
   441.96         70.3887
   442.10         70.0754
   442.24         69.7810
   442.38         69.5051
   442.52         69.2521
   442.66         69.0236
   442.80         68.8175
   442.94         68.6329
   443.08         68.4713
   443.22         68.3362
   443.36         68.2330
   443.50         68.1697
   443.64         68.1544
   443.78         68.1923
   443.92         68.2840
   444.06         68.4256
   444.20         68.6094
   444.34         68.8237
   444.48         69.0517
   444.62         69.2757
   444.76         69.4826
   444.90         69.6638
   445.04         69.8142
   445.18         69.9323
   445.32         70.0199
   445.46         70.0801
   445.60         70.1134
   445.74         70.1118
   445.88         70.0554
   446.02         69.9180
   446.16         69.6800
   446.30         69.3364
   446.44         68.8958
   446.58         68.3782
   446.72         67.8138
   446.86         67.2399
   447.00         66.6939
   447.14         66.2096
   447.28         65.8184
   447.42         65.5487
   447.56         65.4197
   447.70         65.4353
   447.84         65.5829
   447.98         65.8353
   448.12         66.1528
   448.26         66.4907
   448.40         66.8124
   448.54         67.0978
   448.68         67.3437
   448.82         67.5560
   448.96         67.7402
   449.10         67.8983
   449.24         68.0297
   449.38         68.1310
   449.52         68.1962
   449.66         68.2209
   449.80         68.2030
   449.94         68.1452
   450.08         68.0555
   450.22         67.9421
   450.36         67.8086
   450.50         67.6611
   450.64         67.5141
   450.78         67.3853
   450.92         67.2910
   451.06         67.2441
   451.20         67.2505
   451.34         67.3042
   451.48         67.3879
   451.62         67.4815
   451.76         67.5658
   451.90         67.6224
   452.04         67.6337
   452.18         67.5853
   452.32         67.4693
   452.46         67.2857
   452.60         67.0446
   452.74         66.7605
   452.88         66.4417
   453.02         66.0936
   453.16         65.7271
   453.30         65.3608
   453.44         65.0139
   453.58         64.7036
   453.72         64.4442
   453.86         64.2446
   454.00         64.1086
   454.14         64.0392
   454.28         64.0398
   454.42         64.1122
   454.56         64.2532
   454.70         64.4511
   454.84         64.6874
