# File HD240296
# Wavelength [nm]    Normalized Amplitude
   349.70         16.5528
   349.84         16.5123
   349.98         16.4787
   350.12         16.4543
   350.26         16.4442
   350.40         16.4517
   350.54         16.4754
   350.68         16.5084
   350.82         16.5424
   350.96         16.5685
   351.10         16.5783
   351.24         16.5685
   351.38         16.5424
   351.52         16.5084
   351.66         16.4754
   351.80         16.4517
   351.94         16.4442
   352.08         16.4543
   352.22         16.4787
   352.36         16.5123
   352.50         16.5528
   352.64         16.6013
   352.78         16.6587
   352.92         16.7215
   353.06         16.7852
   353.20         16.8480
   353.34         16.9108
   353.48         16.9771
   353.62         17.0522
   353.76         17.1420
   353.90         17.2506
   354.04         17.3757
   354.18         17.5082
   354.32         17.6343
   354.46         17.7387
   354.60         17.8067
   354.74         17.8269
   354.88         17.7954
   355.02         17.7154
   355.16         17.5947
   355.30         17.4409
   355.44         17.2601
   355.58         17.0596
   355.72         16.8495
   355.86         16.6400
   356.00         16.4387
   356.14         16.2504
   356.28         16.0773
   356.42         15.9206
   356.56         15.7790
   356.70         15.6501
   356.84         15.5325
   356.98         15.4260
   357.12         15.3292
   357.26         15.2387
   357.40         15.1519
   357.54         15.0679
   357.68         14.9857
   357.82         14.9055
   357.96         14.8306
   358.10         14.7680
   358.24         14.7253
   358.38         14.7101
   358.52         14.7297
   358.66         14.7905
   358.80         14.8973
   358.94         15.0534
   359.08         15.2557
   359.22         15.4913
   359.36         15.7399
   359.50         15.9778
   359.64         16.1815
   359.78         16.3294
   359.92         16.4060
   360.06         16.4053
   360.20         16.3293
   360.34         16.1867
   360.48         15.9926
   360.62         15.7667
   360.76         15.5281
   360.90         15.2943
   361.04         15.0828
   361.18         14.9113
   361.32         14.7936
   361.46         14.7366
   361.60         14.7410
   361.74         14.7997
   361.88         14.9002
   362.02         15.0274
   362.16         15.1653
   362.30         15.2999
   362.44         15.4202
   362.58         15.5209
   362.72         15.6034
   362.86         15.6737
   363.00         15.7393
   363.14         15.8053
   363.28         15.8723
   363.42         15.9392
   363.56         16.0042
   363.70         16.0656
   363.84         16.1215
   363.98         16.1693
   364.12         16.2076
   364.26         16.2380
   364.40         16.2629
   364.54         16.2857
   364.68         16.3116
   364.82         16.3479
   364.96         16.4038
   365.10         16.4860
   365.24         16.5944
   365.38         16.7227
   365.52         16.8599
   365.66         16.9910
   365.80         17.1013
   365.94         17.1815
   366.08         17.2298
   366.22         17.2493
   366.36         17.2467
   366.50         17.2289
   366.64         17.2013
   366.78         17.1692
   366.92         17.1377
   367.06         17.1110
   367.20         17.0918
   367.34         17.0818
   367.48         17.0806
   367.62         17.0852
   367.76         17.0911
   367.90         17.0934
   368.04         17.0912
   368.18         17.0898
   368.32         17.0969
   368.46         17.1180
   368.60         17.1533
   368.74         17.1991
   368.88         17.2519
   369.02         17.3084
   369.16         17.3624
   369.30         17.4064
   369.44         17.4335
   369.58         17.4370
   369.72         17.4103
   369.86         17.3474
   370.00         17.2462
   370.14         17.1105
   370.28         16.9526
   370.42         16.7933
   370.56         16.6571
   370.70         16.5684
   370.84         16.5459
   370.98         16.5932
   371.12         16.6999
   371.26         16.8530
   371.40         17.0426
   371.54         17.2612
   371.68         17.4983
   371.82         17.7402
   371.96         17.9725
   372.10         18.1797
   372.24         18.3436
   372.38         18.4471
   372.52         18.4822
   372.66         18.4572
   372.80         18.3961
   372.94         18.3322
   373.08         18.2977
   373.22         18.3166
   373.36         18.4005
   373.50         18.5448
   373.64         18.7274
   373.78         18.9179
   373.92         19.0867
   374.06         19.2116
   374.20         19.2808
   374.34         19.2932
   374.48         19.2565
   374.62         19.1836
   374.76         19.0903
   374.90         19.0003
   375.04         18.9486
   375.18         18.9742
   375.32         19.1055
   375.46         19.3493
   375.60         19.6843
   375.74         20.0633
   375.88         20.4230
   376.02         20.7004
   376.16         20.8495
   376.30         20.8533
   376.44         20.7302
   376.58         20.5324
   376.72         20.3349
   376.86         20.2181
   377.00         20.2476
   377.14         20.4636
   377.28         20.8805
   377.42         21.4880
   377.56         22.2521
   377.70         23.1186
   377.84         24.0214
   377.98         24.8887
   378.12         25.6447
   378.26         26.2155
   378.40         26.5404
   378.54         26.5833
   378.68         26.3407
   378.82         25.8443
   378.96         25.1585
   379.10         24.3716
   379.24         23.5796
   379.38         22.8713
   379.52         22.3187
   379.66         21.9743
   379.80         21.8753
   379.94         22.0405
   380.08         22.4620
   380.22         23.1084
   380.36         23.9329
   380.50         24.8797
   380.64         25.8808
   380.78         26.8574
   380.92         27.7368
   381.06         28.4659
   381.20         29.0145
   381.34         29.3720
   381.48         29.5420
   381.62         29.5349
   381.76         29.3590
   381.90         29.0168
   382.04         28.5089
   382.18         27.8376
   382.32         27.0133
   382.46         26.0601
   382.60         25.0145
   382.74         23.9264
   382.88         22.8631
   383.02         21.9054
   383.16         21.1334
   383.30         20.6119
   383.44         20.3851
   383.58         20.4795
   383.72         20.8989
   383.86         21.6207
   384.00         22.5995
   384.14         23.7721
   384.28         25.0605
   384.42         26.3801
   384.56         27.6477
   384.70         28.7916
   384.84         29.7643
   384.98         30.5488
   385.12         31.1528
   385.26         31.5990
   385.40         31.9200
   385.54         32.1521
   385.68         32.3285
   385.82         32.4726
   385.96         32.5970
   386.10         32.7065
   386.24         32.8011
   386.38         32.8719
   386.52         32.9002
   386.66         32.8623
   386.80         32.7353
   386.94         32.5010
   387.08         32.1484
   387.22         31.6697
   387.36         31.0582
   387.50         30.3098
   387.64         29.4253
   387.78         28.4159
   387.92         27.3102
   388.06         26.1537
   388.20         25.0044
   388.34         23.9284
   388.48         22.9908
   388.62         22.2484
   388.76         21.7474
   388.90         21.5203
   389.04         21.5800
   389.18         21.9182
   389.32         22.5081
   389.46         23.3042
   389.60         24.2456
   389.74         25.2656
   389.88         26.3029
   390.02         27.3091
   390.16         28.2500
   390.30         29.1064
   390.44         29.8717
   390.58         30.5462
   390.72         31.1304
   390.86         31.6246
   391.00         32.0304
   391.14         32.3500
   391.28         32.5863
   391.42         32.7405
   391.56         32.8060
   391.70         32.7626
   391.84         32.5744
   391.98         32.1958
   392.12         31.5850
   392.26         30.7232
   392.40         29.6306
   392.54         28.3697
   392.68         27.0322
   392.82         25.7274
   392.96         24.5720
   393.10         23.6744
   393.24         23.1212
   393.38         22.9681
   393.52         23.2292
   393.66         23.8740
   393.80         24.8299
   393.94         25.9928
   394.08         27.2426
   394.22         28.4566
   394.36         29.5229
   394.50         30.3543
   394.64         30.9036
   394.78         31.1689
   394.92         31.1826
   395.06         30.9930
   395.20         30.6409
   395.34         30.1441
   395.48         29.4991
   395.62         28.6907
   395.76         27.7056
   395.90         26.5497
   396.04         25.2572
   396.18         23.8886
   396.32         22.5269
   396.46         21.2678
   396.60         20.2096
   396.74         19.4390
   396.88         19.0161
   397.02         18.9705
   397.16         19.3033
   397.30         19.9917
   397.44         20.9867
   397.58         22.2130
   397.72         23.5804
   397.86         24.9947
   398.00         26.3680
   398.14         27.6314
   398.28         28.7426
   398.42         29.6860
   398.56         30.4668
   398.70         31.1050
   398.84         31.6266
   398.98         32.0566
   399.12         32.4149
   399.26         32.7129
   399.40         32.9568
   399.54         33.1549
   399.68         33.3197
   399.82         33.4682
   399.96         33.6168
   400.10         33.7733
   400.24         33.9396
   400.38         34.1151
   400.52         34.2984
   400.66         34.4885
   400.80         34.6849
   400.94         34.8854
   401.08         35.0849
   401.22         35.2781
   401.36         35.4618
   401.50         35.6304
   401.64         35.7730
   401.78         35.8741
   401.92         35.9174
   402.06         35.8947
   402.20         35.8079
   402.34         35.6670
   402.48         35.4909
   402.62         35.3033
   402.76         35.1281
   402.90         34.9868
   403.04         34.8945
   403.18         34.8564
   403.32         34.8679
   403.46         34.9165
   403.60         34.9867
   403.74         35.0662
   403.88         35.1462
   404.02         35.2166
   404.16         35.2647
   404.30         35.2778
   404.44         35.2469
   404.58         35.1729
   404.72         35.0690
   404.86         34.9556
   405.00         34.8515
   405.14         34.7662
   405.28         34.6978
   405.42         34.6377
   405.56         34.5764
   405.70         34.5067
   405.84         34.4253
   405.98         34.3334
   406.12         34.2364
   406.26         34.1396
   406.40         34.0404
   406.54         33.9257
   406.68         33.7796
   406.82         33.5961
   406.96         33.3793
   407.10         33.1388
   407.24         32.8852
   407.38         32.6281
   407.52         32.3741
   407.66         32.1273
   407.80         31.8876
   407.94         31.6507
   408.08         31.4091
   408.22         31.1514
   408.36         30.8591
   408.50         30.5073
   408.64         30.0678
   408.78         29.5117
   408.92         28.8116
   409.06         27.9522
   409.20         26.9444
   409.34         25.8321
   409.48         24.6833
   409.62         23.5747
   409.76         22.5818
   409.90         21.7753
   410.04         21.2181
   410.18         20.9589
   410.32         21.0247
   410.46         21.4121
   410.60         22.0884
   410.74         22.9979
   410.88         24.0675
   411.02         25.2152
   411.16         26.3598
   411.30         27.4293
   411.44         28.3663
   411.58         29.1369
   411.72         29.7353
   411.86         30.1785
   412.00         30.4939
   412.14         30.7103
   412.28         30.8561
   412.42         30.9608
   412.56         31.0553
   412.70         31.1697
   412.84         31.3263
   412.98         31.5330
   413.12         31.7838
   413.26         32.0652
   413.40         32.3630
   413.54         32.6620
   413.68         32.9442
   413.82         33.1914
   413.96         33.3905
   414.10         33.5340
   414.24         33.6183
   414.38         33.6437
   414.52         33.6154
   414.66         33.5436
   414.80         33.4424
   414.94         33.3285
   415.08         33.2191
   415.22         33.1302
   415.36         33.0724
   415.50         33.0476
   415.64         33.0507
   415.78         33.0750
   415.92         33.1112
   416.06         33.1450
   416.20         33.1583
   416.34         33.1349
   416.48         33.0646
   416.62         32.9436
   416.76         32.7745
   416.90         32.5679
   417.04         32.3425
   417.18         32.1198
   417.32         31.9189
   417.46         31.7537
   417.60         31.6332
   417.74         31.5648
   417.88         31.5551
   418.02         31.6065
   418.16         31.7168
   418.30         31.8794
   418.44         32.0812
   418.58         32.3017
   418.72         32.5193
   418.86         32.7186
   419.00         32.8921
   419.14         33.0364
   419.28         33.1509
   419.42         33.2367
   419.56         33.2950
   419.70         33.3257
   419.84         33.3296
   419.98         33.3121
   420.12         33.2832
   420.26         33.2537
   420.40         33.2332
   420.54         33.2252
   420.68         33.2262
   420.82         33.2293
   420.96         33.2265
   421.10         33.2074
   421.24         33.1608
   421.38         33.0774
   421.52         32.9532
   421.66         32.7934
   421.80         32.6107
   421.94         32.4217
   422.08         32.2423
   422.22         32.0841
   422.36         31.9529
   422.50         31.8528
   422.64         31.7870
   422.78         31.7560
   422.92         31.7568
   423.06         31.7858
   423.20         31.8393
   423.34         31.9099
   423.48         31.9851
   423.62         32.0488
   423.76         32.0845
   423.90         32.0818
   424.04         32.0419
   424.18         31.9785
   424.32         31.9100
   424.46         31.8499
   424.60         31.8035
   424.74         31.7691
   424.88         31.7436
   425.02         31.7280
   425.16         31.7290
   425.30         31.7554
   425.44         31.8129
   425.58         31.9004
   425.72         32.0087
   425.86         32.1196
   426.00         32.2102
   426.14         32.2615
   426.28         32.2646
   426.42         32.2209
   426.56         32.1406
   426.70         32.0403
   426.84         31.9372
   426.98         31.8440
   427.12         31.7667
   427.26         31.7073
   427.40         31.6665
   427.54         31.6443
   427.68         31.6368
   427.82         31.6349
   427.96         31.6269
   428.10         31.6008
   428.24         31.5476
   428.38         31.4636
   428.52         31.3508
   428.66         31.2140
   428.80         31.0559
   428.94         30.8775
   429.08         30.6803
   429.22         30.4670
   429.36         30.2402
   429.50         30.0004
   429.64         29.7469
   429.78         29.4834
   429.92         29.2221
   430.06         28.9771
   430.20         28.7589
   430.34         28.5739
   430.48         28.4292
   430.62         28.3310
   430.76         28.2792
   430.90         28.2658
   431.04         28.2780
   431.18         28.2985
   431.32         28.3064
   431.46         28.2842
   431.60         28.2245
   431.74         28.1279
   431.88         27.9954
   432.02         27.8257
   432.16         27.6141
   432.30         27.3527
   432.44         27.0307
   432.58         26.6323
   432.72         26.1362
   432.86         25.5233
   433.00         24.7893
   433.14         23.9511
   433.28         23.0461
   433.42         22.1269
   433.56         21.2547
   433.70         20.4915
   433.84         19.8915
   433.98         19.4951
   434.12         19.3281
   434.26         19.4022
   434.40         19.7127
   434.54         20.2392
   434.68         20.9458
   434.82         21.7840
   434.96         22.6992
   435.10         23.6394
   435.24         24.5610
   435.38         25.4319
   435.52         26.2350
   435.66         26.9659
   435.80         27.6256
   435.94         28.2139
   436.08         28.7267
   436.22         29.1564
   436.36         29.4960
   436.50         29.7449
   436.64         29.9140
   436.78         30.0254
   436.92         30.1039
   437.06         30.1675
   437.20         30.2241
   437.34         30.2739
   437.48         30.3171
   437.62         30.3572
   437.76         30.3975
   437.90         30.4381
   438.04         30.4760
   438.18         30.5066
   438.32         30.5250
   438.46         30.5290
   438.60         30.5201
   438.74         30.5004
   438.88         30.4705
   439.02         30.4326
   439.16         30.3931
   439.30         30.3577
   439.44         30.3279
   439.58         30.3005
   439.72         30.2729
   439.86         30.2480
   440.00         30.2340
   440.14         30.2384
   440.28         30.2601
   440.42         30.2857
   440.56         30.2977
   440.70         30.2825
   440.84         30.2349
   440.98         30.1582
   441.12         30.0624
   441.26         29.9584
   441.40         29.8561
   441.54         29.7666
   441.68         29.7023
   441.82         29.6728
   441.96         29.6804
   442.10         29.7192
   442.24         29.7769
   442.38         29.8401
   442.52         29.8996
   442.66         29.9510
   442.80         29.9919
   442.94         30.0186
   443.08         30.0280
   443.22         30.0225
   443.36         30.0104
   443.50         30.0021
   443.64         30.0053
   443.78         30.0222
   443.92         30.0503
   444.06         30.0845
   444.20         30.1178
   444.34         30.1410
   444.48         30.1449
   444.62         30.1238
   444.76         30.0770
   444.90         30.0097
   445.04         29.9315
   445.18         29.8532
   445.32         29.7811
   445.46         29.7155
   445.60         29.6537
   445.74         29.5947
   445.88         29.5423
   446.02         29.5037
   446.16         29.4841
   446.30         29.4854
   446.44         29.5068
   446.58         29.5454
   446.72         29.5942
   446.86         29.6395
   447.00         29.6671
   447.14         29.6697
   447.28         29.6489
   447.42         29.6114
   447.56         29.5638
   447.70         29.5102
   447.84         29.4527
   447.98         29.3958
   448.12         29.3466
   448.26         29.3126
   448.40         29.3006
   448.54         29.3175
   448.68         29.3694
   448.82         29.4570
   448.96         29.5735
   449.10         29.7086
   449.24         29.8518
   449.38         29.9935
   449.52         30.1266
   449.66         30.2501
   449.80         30.3686
   449.94         30.4866
   450.08         30.6037
   450.22         30.7130
   450.36         30.8047
   450.50         30.8718
   450.64         30.9116
   450.78         30.9216
   450.92         30.8991
   451.06         30.8430
   451.20         30.7552
   451.34         30.6387
   451.48         30.4953
   451.62         30.3271
   451.76         30.1394
   451.90         29.9389
   452.04         29.7312
   452.18         29.5196
   452.32         29.3105
   452.46         29.1168
   452.60         28.9535
   452.74         28.8315
   452.88         28.7569
   453.02         28.7330
   453.16         28.7607
   453.30         28.8362
   453.44         28.9487
   453.58         29.0807
   453.72         29.2105
   453.86         29.3170
   454.00         29.3824
   454.14         29.3920
   454.28         29.3369
   454.42         29.2186
   454.56         29.0479
   454.70         28.8408
   454.84         28.6187
   454.98         28.4070
   455.12         28.2280
   455.26         28.0956
   455.40         28.0160
   455.54         27.9917
   455.68         28.0214
   455.82         28.0990
   455.96         28.2136
   456.10         28.3506
   456.24         28.4956
   456.38         28.6372
   456.52         28.7674
   456.66         28.8790
   456.80         28.9640
   456.94         29.0140
