# File HD242908
# Wavelength [nm]    Normalized Amplitude
   349.70         292.7720
   349.84         292.3808
   349.98         291.9022
   350.12         291.3434
   350.26         290.7394
   350.40         290.1511
   350.54         289.6462
   350.68         289.2638
   350.82         289.0129
   350.96         288.8821
   351.10         288.8436
   351.24         288.8821
   351.38         289.0129
   351.52         289.2638
   351.66         289.6462
   351.80         290.1511
   351.94         290.7394
   352.08         291.3434
   352.22         291.9022
   352.36         292.3808
   352.50         292.7720
   352.64         293.0830
   352.78         293.3107
   352.92         293.4338
   353.06         293.4420
   353.20         293.3649
   353.34         293.2570
   353.48         293.1601
   353.62         293.0857
   353.76         293.0443
   353.90         293.0539
   354.04         293.1169
   354.18         293.1995
   354.32         293.2436
   354.46         293.2016
   354.60         293.0447
   354.74         292.7674
   354.88         292.3754
   355.02         291.8561
   355.16         291.1756
   355.30         290.2908
   355.44         289.1719
   355.58         287.8353
   355.72         286.3427
   355.86         284.7621
   356.00         283.1352
   356.14         281.4807
   356.28         279.8112
   356.42         278.1366
   356.56         276.4487
   356.70         274.7222
   356.84         272.9366
   356.98         271.1053
   357.12         269.2764
   357.26         267.5031
   357.40         265.8285
   357.54         264.2934
   357.68         262.9477
   357.82         261.8440
   357.96         261.0179
   358.10         260.4690
   358.24         260.1554
   358.38         259.9918
   358.52         259.8791
   358.66         259.7384
   358.80         259.5083
   358.94         259.1405
   359.08         258.6064
   359.22         257.9044
   359.36         257.0672
   359.50         256.1666
   359.64         255.3038
   359.78         254.5738
   359.92         254.0391
   360.06         253.7302
   360.20         253.6540
   360.34         253.7866
   360.48         254.0644
   360.62         254.3952
   360.76         254.6855
   360.90         254.8696
   361.04         254.9204
   361.18         254.8365
   361.32         254.6135
   361.46         254.2359
   361.60         253.7054
   361.74         253.0610
   361.88         252.3668
   362.02         251.6878
   362.16         251.0813
   362.30         250.5955
   362.44         250.2568
   362.58         250.0598
   362.72         249.9747
   362.86         249.9441
   363.00         249.8963
   363.14         249.7828
   363.28         249.5992
   363.42         249.3744
   363.56         249.1367
   363.70         248.8985
   363.84         248.6771
   363.98         248.5065
   364.12         248.4365
   364.26         248.5384
   364.40         248.8837
   364.54         249.5022
   364.68         250.3716
   364.82         251.4516
   364.96         252.6897
   365.10         253.9991
   365.24         255.2674
   365.38         256.3767
   365.52         257.2161
   365.66         257.7072
   365.80         257.8195
   365.94         257.5516
   366.08         256.9081
   366.22         255.9183
   366.36         254.6575
   366.50         253.2361
   366.64         251.7718
   366.78         250.3647
   366.92         249.0850
   367.06         247.9612
   367.20         246.9947
   367.34         246.1772
   367.48         245.4917
   367.62         244.9117
   367.76         244.4113
   367.90         243.9592
   368.04         243.5007
   368.18         242.9909
   368.32         242.4421
   368.46         241.9168
   368.60         241.4841
   368.74         241.2028
   368.88         241.1162
   369.02         241.2213
   369.16         241.4680
   369.30         241.7857
   369.44         242.0885
   369.58         242.2966
   369.72         242.3557
   369.86         242.2254
   370.00         241.8669
   370.14         241.2687
   370.28         240.4716
   370.42         239.5469
   370.56         238.5672
   370.70         237.6164
   370.84         236.7946
   370.98         236.1717
   371.12         235.7467
   371.26         235.4655
   371.40         235.2455
   371.54         234.9810
   371.68         234.5790
   371.82         233.9977
   371.96         233.2480
   372.10         232.3773
   372.24         231.4604
   372.38         230.5812
   372.52         229.8037
   372.66         229.1691
   372.80         228.7107
   372.94         228.4526
   373.08         228.3978
   373.22         228.5295
   373.36         228.8208
   373.50         229.2341
   373.64         229.7214
   373.78         230.2208
   373.92         230.6448
   374.06         230.8669
   374.20         230.7440
   374.34         230.1915
   374.48         229.2093
   374.62         227.8442
   374.76         226.1726
   374.90         224.2959
   375.04         222.3330
   375.18         220.4219
   375.32         218.7269
   375.46         217.4157
   375.60         216.5836
   375.74         216.2125
   375.88         216.1979
   376.02         216.3785
   376.16         216.5625
   376.30         216.5778
   376.44         216.3247
   376.58         215.8044
   376.72         215.1113
   376.86         214.4091
   377.00         213.9116
   377.14         213.8137
   377.28         214.2294
   377.42         215.1973
   377.56         216.7008
   377.70         218.6746
   377.84         220.9864
   377.98         223.4324
   378.12         225.7532
   378.26         227.6632
   378.40         228.9163
   378.54         229.3542
   378.68         228.9219
   378.82         227.6784
   378.96         225.7888
   379.10         223.4887
   379.24         221.0331
   379.38         218.6647
   379.52         216.6003
   379.66         215.0173
   379.80         214.0356
   379.94         213.7167
   380.08         214.0875
   380.22         215.1345
   380.36         216.7737
   380.50         218.8548
   380.64         221.2002
   380.78         223.6293
   380.92         225.9718
   381.06         228.0775
   381.20         229.8296
   381.34         231.1742
   381.48         232.1176
   381.62         232.6920
   381.76         232.9314
   381.90         232.8589
   382.04         232.4691
   382.18         231.7076
   382.32         230.4864
   382.46         228.7317
   382.60         226.4363
   382.74         223.6878
   382.88         220.6439
   383.02         217.5066
   383.16         214.5131
   383.30         211.9025
   383.44         209.8782
   383.58         208.5775
   383.72         208.0498
   383.86         208.2696
   384.00         209.1550
   384.14         210.5624
   384.28         212.2854
   384.42         214.0826
   384.56         215.7146
   384.70         216.9671
   384.84         217.6915
   384.98         217.8573
   385.12         217.5555
   385.26         216.9570
   385.40         216.2473
   385.54         215.5696
   385.68         215.0128
   385.82         214.6249
   385.96         214.4264
   386.10         214.4098
   386.24         214.5374
   386.38         214.7536
   386.52         215.0036
   386.66         215.2367
   386.80         215.3940
   386.94         215.4093
   387.08         215.2146
   387.22         214.7415
   387.36         213.9207
   387.50         212.6917
   387.64         211.0122
   387.78         208.8595
   387.92         206.2448
   388.06         203.2439
   388.20         200.0210
   388.34         196.8117
   388.48         193.8762
   388.62         191.4490
   388.76         189.7026
   388.90         188.7504
   389.04         188.6448
   389.18         189.3681
   389.32         190.8326
   389.46         192.8846
   389.60         195.3248
   389.74         197.9266
   389.88         200.4592
   390.02         202.7219
   390.16         204.5623
   390.30         205.8866
   390.44         206.6746
   390.58         206.9820
   390.72         206.9099
   390.86         206.5517
   391.00         205.9604
   391.14         205.1650
   391.28         204.1914
   391.42         203.0674
   391.56         201.8259
   391.70         200.5051
   391.84         199.1513
   391.98         197.8085
   392.12         196.5007
   392.26         195.2339
   392.40         194.0144
   392.54         192.8692
   392.68         191.8505
   392.82         191.0195
   392.96         190.4291
   393.10         190.1141
   393.24         190.0818
   393.38         190.3056
   393.52         190.7319
   393.66         191.3105
   393.80         192.0031
   393.94         192.7541
   394.08         193.4854
   394.22         194.1151
   394.36         194.5713
   394.50         194.7953
   394.64         194.7511
   394.78         194.4430
   394.92         193.9109
   395.06         193.2087
   395.20         192.3857
   395.34         191.4689
   395.48         190.4367
   395.62         189.2044
   395.76         187.6491
   395.90         185.6642
   396.04         183.2081
   396.18         180.3263
   396.32         177.1591
   396.46         173.9200
   396.60         170.8485
   396.74         168.1822
   396.88         166.1365
   397.02         164.8780
   397.16         164.5057
   397.30         165.0376
   397.44         166.3974
   397.58         168.4152
   397.72         170.8579
   397.86         173.4715
   398.00         175.9999
   398.14         178.2018
   398.28         179.9058
   398.42         181.0549
   398.56         181.6980
   398.70         181.9421
   398.84         181.9038
   398.98         181.6881
   399.12         181.3726
   399.26         180.9992
   399.40         180.5930
   399.54         180.1804
   399.68         179.7901
   399.82         179.4447
   399.96         179.1523
   400.10         178.9098
   400.24         178.7097
   400.38         178.5507
   400.52         178.4462
   400.66         178.4140
   400.80         178.4678
   400.94         178.6080
   401.08         178.7983
   401.22         178.9650
   401.36         179.0231
   401.50         178.8995
   401.64         178.5494
   401.78         177.9573
   401.92         177.1374
   402.06         176.1283
   402.20         174.9728
   402.34         173.7162
   402.48         172.4233
   402.62         171.1832
   402.76         170.0917
   402.90         169.2339
   403.04         168.6737
   403.18         168.4347
   403.32         168.4896
   403.46         168.7736
   403.60         169.2088
   403.74         169.7260
   403.88         170.2809
   404.02         170.8489
   404.16         171.4206
   404.30         172.0004
   404.44         172.5845
   404.58         173.1503
   404.72         173.6667
   404.86         174.1110
   405.00         174.4822
   405.14         174.7930
   405.28         175.0492
   405.42         175.2418
   405.56         175.3523
   405.70         175.3569
   405.84         175.2345
   405.98         174.9822
   406.12         174.6159
   406.26         174.1604
   406.40         173.6410
   406.54         173.0750
   406.68         172.4716
   406.82         171.8411
   406.96         171.1946
   407.10         170.5418
   407.24         169.9027
   407.38         169.3123
   407.52         168.8008
   407.66         168.3762
   407.80         168.0338
   407.94         167.7647
   408.08         167.5479
   408.22         167.3522
   408.36         167.1453
   408.50         166.8910
   408.64         166.5379
   408.78         166.0009
   408.92         165.1684
   409.06         163.9367
   409.20         162.2472
   409.34         160.1149
   409.48         157.6394
   409.62         154.9942
   409.76         152.3889
   409.90         150.0351
   410.04         148.1244
   410.18         146.8046
   410.32         146.1673
   410.46         146.2460
   410.60         147.0080
   410.74         148.3555
   410.88         150.1424
   411.02         152.1846
   411.16         154.2738
   411.30         156.2100
   411.44         157.8388
   411.58         159.0813
   411.72         159.9409
   411.86         160.4816
   412.00         160.7913
   412.14         160.9544
   412.28         161.0338
   412.42         161.0653
   412.56         161.0665
   412.70         161.0397
   412.84         160.9778
   412.98         160.8798
   413.12         160.7511
   413.26         160.5998
   413.40         160.4324
   413.54         160.2499
   413.68         160.0492
   413.82         159.8303
   413.96         159.6020
   414.10         159.3801
   414.24         159.1779
   414.38         159.0069
   414.52         158.8741
   414.66         158.7789
   414.80         158.7151
   414.94         158.6664
   415.08         158.6093
   415.22         158.5180
   415.36         158.3690
   415.50         158.1502
   415.64         157.8544
   415.78         157.4737
   415.92         157.0104
   416.06         156.4732
   416.20         155.8749
   416.34         155.2434
   416.48         154.6211
   416.62         154.0518
   416.76         153.5690
   416.90         153.1946
   417.04         152.9412
   417.18         152.8049
   417.32         152.7679
   417.46         152.8039
   417.60         152.8791
   417.74         152.9595
   417.88         153.0074
   418.02         152.9778
   418.16         152.8275
   418.30         152.5249
   418.44         152.0572
   418.58         151.4246
   418.72         150.6291
   418.86         149.6770
   419.00         148.5886
   419.14         147.4008
   419.28         146.1701
   419.42         144.9766
   419.56         143.9128
   419.70         143.0600
   419.84         142.4737
   419.98         142.1858
   420.12         142.1991
   420.26         142.4780
   420.40         142.9589
   420.54         143.5668
   420.68         144.2268
   420.82         144.8757
   420.96         145.4660
   421.10         145.9678
   421.24         146.3676
   421.38         146.6614
   421.52         146.8557
   421.66         146.9751
   421.80         147.0582
   421.94         147.1444
   422.08         147.2550
   422.22         147.3814
   422.36         147.4928
   422.50         147.5566
   422.64         147.5489
   422.78         147.4495
   422.92         147.2503
   423.06         146.9688
   423.20         146.6427
   423.34         146.3077
   423.48         145.9909
   423.62         145.7138
   423.76         145.4909
   423.90         145.3277
   424.04         145.2197
   424.18         145.1590
   424.32         145.1449
   424.46         145.1798
   424.60         145.2550
   424.74         145.3464
   424.88         145.4220
   425.02         145.4521
   425.16         145.4128
   425.30         145.2814
   425.44         145.0383
   425.58         144.6779
   425.72         144.2100
   425.86         143.6536
   426.00         143.0336
   426.14         142.3842
   426.28         141.7432
   426.42         141.1439
   426.56         140.6133
   426.70         140.1670
   426.84         139.8111
   426.98         139.5496
   427.12         139.3815
   427.26         139.2995
   427.40         139.2941
   427.54         139.3509
   427.68         139.4505
   427.82         139.5738
   427.96         139.7011
   428.10         139.8119
   428.24         139.8924
   428.38         139.9345
   428.52         139.9317
   428.66         139.8780
   428.80         139.7653
   428.94         139.5847
   429.08         139.3347
   429.22         139.0268
   429.36         138.6834
   429.50         138.3348
   429.64         138.0165
   429.78         137.7628
   429.92         137.5980
   430.06         137.5287
   430.20         137.5395
   430.34         137.6005
   430.48         137.6732
   430.62         137.7180
   430.76         137.7059
   430.90         137.6262
   431.04         137.4837
   431.18         137.2932
   431.32         137.0732
   431.46         136.8414
   431.60         136.6122
   431.74         136.3998
   431.88         136.2159
   432.02         136.0595
   432.16         135.9169
   432.30         135.7599
   432.44         135.5374
   432.58         135.1660
   432.72         134.5364
   432.86         133.5447
   433.00         132.1309
   433.14         130.2993
   433.28         128.1249
   433.42         125.7444
   433.56         123.3317
   433.70         121.0726
   433.84         119.1415
   433.98         117.6876
   434.12         116.8224
   434.26         116.6116
   434.40         117.0697
   434.54         118.1494
   434.68         119.7404
   434.82         121.6857
   434.96         123.7988
   435.10         125.8856
   435.24         127.7758
   435.38         129.3520
   435.52         130.5648
   435.66         131.4226
   435.80         131.9632
   435.94         132.2291
   436.08         132.2610
   436.22         132.1055
   436.36         131.8208
   436.50         131.4643
   436.64         131.0797
   436.78         130.6930
   436.92         130.3179
   437.06         129.9619
   437.20         129.6239
   437.34         129.2986
   437.48         128.9850
   437.62         128.6856
   437.76         128.4038
   437.90         128.1445
   438.04         127.9133
   438.18         127.7110
   438.32         127.5339
   438.46         127.3775
   438.60         127.2425
   438.74         127.1402
   438.88         127.0826
   439.02         127.0680
   439.16         127.0784
   439.30         127.0879
   439.44         127.0766
   439.58         127.0336
   439.72         126.9535
   439.86         126.8376
   440.00         126.6911
   440.14         126.5141
   440.28         126.2978
   440.42         126.0279
   440.56         125.6909
   440.70         125.2758
   440.84         124.7759
   440.98         124.1968
   441.12         123.5542
   441.26         122.8638
   441.40         122.1408
   441.54         121.4068
   441.68         120.6871
   441.82         119.9975
   441.96         119.3380
   442.10         118.7031
   442.24         118.0898
   442.38         117.4994
   442.52         116.9380
   442.66         116.4084
   442.80         115.9124
   442.94         115.4620
   443.08         115.0801
   443.22         114.7966
   443.36         114.6441
   443.50         114.6528
   443.64         114.8439
   443.78         115.2219
   443.92         115.7712
   444.06         116.4646
   444.20         117.2683
   444.34         118.1398
   444.48         119.0260
   444.62         119.8722
   444.76         120.6320
   444.90         121.2671
   445.04         121.7475
   445.18         122.0596
   445.32         122.2085
   445.46         122.2129
   445.60         122.0989
   445.74         121.8946
   445.88         121.6231
   446.02         121.2942
   446.16         120.9102
   446.30         120.4808
   446.44         120.0276
   446.58         119.5749
   446.72         119.1433
   446.86         118.7470
   447.00         118.3895
   447.14         118.0626
   447.28         117.7558
   447.42         117.4699
   447.56         117.2215
   447.70         117.0319
   447.84         116.9114
   447.98         116.8544
   448.12         116.8429
   448.26         116.8552
   448.40         116.8782
   448.54         116.9106
   448.68         116.9597
   448.82         117.0357
   448.96         117.1425
   449.10         117.2644
   449.24         117.3698
   449.38         117.4289
   449.52         117.4245
   449.66         117.3522
   449.80         117.2206
   449.94         117.0493
   450.08         116.8608
   450.22         116.6687
   450.36         116.4770
   450.50         116.2902
   450.64         116.1206
   450.78         115.9817
   450.92         115.8799
   451.06         115.8123
   451.20         115.7687
   451.34         115.7321
   451.48         115.6792
   451.62         115.5918
   451.76         115.4690
   451.90         115.3267
   452.04         115.1836
   452.18         115.0476
   452.32         114.9207
   452.46         114.8001
   452.60         114.6707
   452.74         114.5033
   452.88         114.2631
