# File HD245389
# Wavelength [nm]    Normalized Amplitude
   349.70         3.9752
   349.84         3.9748
   349.98         3.9926
   350.12         4.0219
   350.26         4.0546
   350.40         4.0848
   350.54         4.1109
   350.68         4.1320
   350.82         4.1482
   350.96         4.1591
   351.10         4.1630
   351.24         4.1591
   351.38         4.1482
   351.52         4.1320
   351.66         4.1109
   351.80         4.0848
   351.94         4.0546
   352.08         4.0219
   352.22         3.9926
   352.36         3.9748
   352.50         3.9752
   352.64         3.9958
   352.78         4.0369
   352.92         4.0986
   353.06         4.1790
   353.20         4.2724
   353.34         4.3700
   353.48         4.4615
   353.62         4.5379
   353.76         4.5938
   353.90         4.6272
   354.04         4.6370
   354.18         4.6231
   354.32         4.5876
   354.46         4.5344
   354.60         4.4664
   354.74         4.3863
   354.88         4.2975
   355.02         4.2040
   355.16         4.1087
   355.30         4.0133
   355.44         3.9186
   355.58         3.8245
   355.72         3.7302
   355.86         3.6355
   356.00         3.5412
   356.14         3.4495
   356.28         3.3637
   356.42         3.2884
   356.56         3.2267
   356.70         3.1787
   356.84         3.1425
   356.98         3.1149
   357.12         3.0911
   357.26         3.0665
   357.40         3.0370
   357.54         2.9999
   357.68         2.9538
   357.82         2.9007
   357.96         2.8455
   358.10         2.7964
   358.24         2.7647
   358.38         2.7622
   358.52         2.8012
   358.66         2.8923
   358.80         3.0403
   358.94         3.2419
   359.08         3.4854
   359.22         3.7523
   359.36         4.0206
   359.50         4.2700
   359.64         4.4842
   359.78         4.6500
   359.92         4.7576
   360.06         4.8034
   360.20         4.7929
   360.34         4.7394
   360.48         4.6594
   360.62         4.5682
   360.76         4.4779
   360.90         4.3982
   361.04         4.3375
   361.18         4.3036
   361.32         4.3019
   361.46         4.3359
   361.60         4.4063
   361.74         4.5096
   361.88         4.6370
   362.02         4.7756
   362.16         4.9119
   362.30         5.0334
   362.44         5.1311
   362.58         5.2020
   362.72         5.2496
   362.86         5.2799
   363.00         5.2972
   363.14         5.3040
   363.28         5.3020
   363.42         5.2933
   363.56         5.2819
   363.70         5.2722
   363.84         5.2659
   363.98         5.2626
   364.12         5.2626
   364.26         5.2668
   364.40         5.2766
   364.54         5.2952
   364.68         5.3300
   364.82         5.3915
   364.96         5.4895
   365.10         5.6295
   365.24         5.8102
   365.38         6.0230
   365.52         6.2530
   365.66         6.4817
   365.80         6.6901
   365.94         6.8611
   366.08         6.9832
   366.22         7.0536
   366.36         7.0774
   366.50         7.0648
   366.64         7.0281
   366.78         6.9764
   366.92         6.9145
   367.06         6.8445
   367.20         6.7696
   367.34         6.6929
   367.48         6.6148
   367.62         6.5326
   367.76         6.4435
   367.90         6.3492
   368.04         6.2563
   368.18         6.1737
   368.32         6.1096
   368.46         6.0678
   368.60         6.0499
   368.74         6.0586
   368.88         6.0969
   369.02         6.1637
   369.16         6.2521
   369.30         6.3500
   369.44         6.4438
   369.58         6.5206
   369.72         6.5698
   369.86         6.5826
   370.00         6.5546
   370.14         6.4893
   370.28         6.3996
   370.42         6.3045
   370.56         6.2216
   370.70         6.1604
   370.84         6.1202
   370.98         6.0914
   371.12         6.0613
   371.26         6.0213
   371.40         5.9693
   371.54         5.9046
   371.68         5.8245
   371.82         5.7253
   371.96         5.6050
   372.10         5.4646
   372.24         5.3074
   372.38         5.1386
   372.52         4.9659
   372.66         4.7985
   372.80         4.6447
   372.94         4.5105
   373.08         4.3971
   373.22         4.3006
   373.36         4.2157
   373.50         4.1381
   373.64         4.0665
   373.78         4.0029
   373.92         3.9517
   374.06         3.9177
   374.20         3.9042
   374.34         3.9133
   374.48         3.9452
   374.62         3.9967
   374.76         4.0603
   374.90         4.1276
   375.04         4.1943
   375.18         4.2599
   375.32         4.3250
   375.46         4.3898
   375.60         4.4527
   375.74         4.5107
   375.88         4.5624
   376.02         4.6096
   376.16         4.6574
   376.30         4.7132
   376.44         4.7861
   376.58         4.8839
   376.72         5.0112
   376.86         5.1667
   377.00         5.3425
   377.14         5.5263
   377.28         5.7049
   377.42         5.8675
   377.56         6.0052
   377.70         6.1091
   377.84         6.1704
   377.98         6.1831
   378.12         6.1459
   378.26         6.0622
   378.40         5.9379
   378.54         5.7801
   378.68         5.5965
   378.82         5.3963
   378.96         5.1909
   379.10         4.9941
   379.24         4.8214
   379.38         4.6874
   379.52         4.6016
   379.66         4.5660
   379.80         4.5757
   379.94         4.6213
   380.08         4.6895
   380.22         4.7644
   380.36         4.8303
   380.50         4.8740
   380.64         4.8856
   380.78         4.8575
   380.92         4.7842
   381.06         4.6636
   381.20         4.4987
   381.34         4.2979
   381.48         4.0731
   381.62         3.8379
   381.76         3.6068
   381.90         3.3918
   382.04         3.2008
   382.18         3.0382
   382.32         2.9070
   382.46         2.8094
   382.60         2.7452
   382.74         2.7102
   382.88         2.6967
   383.02         2.6970
   383.16         2.7067
   383.30         2.7246
   383.44         2.7504
   383.58         2.7835
   383.72         2.8224
   383.86         2.8657
   384.00         2.9117
   384.14         2.9584
   384.28         3.0040
   384.42         3.0460
   384.56         3.0803
   384.70         3.1024
   384.84         3.1079
   384.98         3.0951
   385.12         3.0666
   385.26         3.0283
   385.40         2.9866
   385.54         2.9479
   385.68         2.9183
   385.82         2.9016
   385.96         2.8976
   386.10         2.9034
   386.24         2.9168
   386.38         2.9383
   386.52         2.9691
   386.66         3.0088
   386.80         3.0554
   386.94         3.1057
   387.08         3.1576
   387.22         3.2121
   387.36         3.2721
   387.50         3.3410
   387.64         3.4223
   387.78         3.5189
   387.92         3.6336
   388.06         3.7698
   388.20         3.9314
   388.34         4.1202
   388.48         4.3356
   388.62         4.5744
   388.76         4.8311
   388.90         5.0975
   389.04         5.3621
   389.18         5.6107
   389.32         5.8290
   389.46         6.0056
   389.60         6.1349
   389.74         6.2179
   389.88         6.2620
   390.02         6.2776
   390.16         6.2768
   390.30         6.2728
   390.44         6.2776
   390.58         6.2985
   390.72         6.3350
   390.86         6.3786
   391.00         6.4157
   391.14         6.4327
   391.28         6.4179
   391.42         6.3618
   391.56         6.2574
   391.70         6.1004
   391.84         5.8888
   391.98         5.6239
   392.12         5.3113
   392.26         4.9610
   392.40         4.5870
   392.54         4.2052
   392.68         3.8333
   392.82         3.4893
   392.96         3.1902
   393.10         2.9501
   393.24         2.7802
   393.38         2.6896
   393.52         2.6855
   393.66         2.7718
   393.80         2.9472
   393.94         3.2042
   394.08         3.5293
   394.22         3.9047
   394.36         4.3108
   394.50         4.7261
   394.64         5.1293
   394.78         5.5013
   394.92         5.8254
   395.06         6.0857
   395.20         6.2678
   395.34         6.3596
   395.48         6.3519
   395.62         6.2400
   395.76         6.0263
   395.90         5.7229
   396.04         5.3525
   396.18         4.9454
   396.32         4.5369
   396.46         4.1649
   396.60         3.8657
   396.74         3.6704
   396.88         3.6018
   397.02         3.6710
   397.16         3.8756
   397.30         4.2021
   397.44         4.6282
   397.58         5.1258
   397.72         5.6650
   397.86         6.2165
   398.00         6.7549
   398.14         7.2604
   398.28         7.7193
   398.42         8.1238
   398.56         8.4715
   398.70         8.7652
   398.84         9.0118
   398.98         9.2201
   399.12         9.3976
   399.26         9.5486
   399.40         9.6741
   399.54         9.7734
   399.68         9.8475
   399.82         9.9012
   399.96         9.9428
   400.10         9.9817
   400.24         10.0265
   400.38         10.0826
   400.52         10.1533
   400.66         10.2405
   400.80         10.3442
   400.94         10.4624
   401.08         10.5910
   401.22         10.7250
   401.36         10.8587
   401.50         10.9859
   401.64         11.1004
   401.78         11.1944
   401.92         11.2591
   402.06         11.2863
   402.20         11.2706
   402.34         11.2126
   402.48         11.1188
   402.62         10.9997
   402.76         10.8679
   402.90         10.7355
   403.04         10.6132
   403.18         10.5067
   403.32         10.4148
   403.46         10.3314
   403.60         10.2519
   403.74         10.1762
   403.88         10.1086
   404.02         10.0552
   404.16         10.0203
   404.30         10.0026
   404.44         9.9956
   404.58         9.9919
   404.72         9.9880
   404.86         9.9851
   405.00         9.9852
   405.14         9.9859
   405.28         9.9798
   405.42         9.9580
   405.56         9.9138
   405.70         9.8464
   405.84         9.7604
   405.98         9.6642
   406.12         9.5711
   406.26         9.4970
   406.40         9.4523
   406.54         9.4372
   406.68         9.4446
   406.82         9.4676
   406.96         9.5038
   407.10         9.5552
   407.24         9.6251
   407.38         9.7161
   407.52         9.8289
   407.66         9.9633
   407.80         10.1199
   407.94         10.2996
   408.08         10.5010
   408.22         10.7178
   408.36         10.9372
   408.50         11.1415
   408.64         11.3114
   408.78         11.4311
   408.92         11.4891
   409.06         11.4791
   409.20         11.4032
   409.34         11.2747
   409.48         11.1149
   409.62         10.9453
   409.76         10.7827
   409.90         10.6388
   410.04         10.5221
   410.18         10.4395
   410.32         10.3954
   410.46         10.3898
   410.60         10.4168
   410.74         10.4664
   410.88         10.5267
   411.02         10.5861
   411.16         10.6348
   411.30         10.6669
   411.44         10.6804
   411.58         10.6752
   411.72         10.6530
   411.86         10.6161
   412.00         10.5653
   412.14         10.4985
   412.28         10.4129
   412.42         10.3093
   412.56         10.1935
   412.70         10.0760
   412.84         9.9680
   412.98         9.8762
   413.12         9.7987
   413.26         9.7294
   413.40         9.6631
   413.54         9.5980
   413.68         9.5342
   413.82         9.4720
   413.96         9.4103
   414.10         9.3468
   414.24         9.2788
   414.38         9.2044
   414.52         9.1244
   414.66         9.0437
   414.80         8.9722
   414.94         8.9225
   415.08         8.9051
   415.22         8.9250
   415.36         8.9794
   415.50         9.0593
   415.64         9.1532
   415.78         9.2513
   415.92         9.3474
   416.06         9.4354
   416.20         9.5059
   416.34         9.5484
   416.48         9.5552
   416.62         9.5224
   416.76         9.4513
   416.90         9.3483
   417.04         9.2246
   417.18         9.0957
   417.32         8.9804
   417.46         8.8961
   417.60         8.8539
   417.74         8.8580
   417.88         8.9072
   418.02         8.9961
   418.16         9.1173
   418.30         9.2605
   418.44         9.4115
   418.58         9.5522
   418.72         9.6651
   418.86         9.7391
   419.00         9.7704
   419.14         9.7601
   419.28         9.7137
   419.42         9.6420
   419.56         9.5606
   419.70         9.4877
   419.84         9.4390
   419.98         9.4253
   420.12         9.4499
   420.26         9.5090
   420.40         9.5938
   420.54         9.6961
   420.68         9.8115
   420.82         9.9396
   420.96         10.0806
   421.10         10.2316
   421.24         10.3854
   421.38         10.5304
   421.52         10.6501
   421.66         10.7297
   421.80         10.7630
   421.94         10.7552
   422.08         10.7179
   422.22         10.6629
   422.36         10.5994
   422.50         10.5341
   422.64         10.4734
   422.78         10.4253
   422.92         10.3997
   423.06         10.4088
   423.20         10.4657
   423.34         10.5789
   423.48         10.7456
   423.62         10.9497
   423.76         11.1655
   423.90         11.3656
   424.04         11.5288
   424.18         11.6454
   424.32         11.7164
   424.46         11.7473
   424.60         11.7433
   424.74         11.7067
   424.88         11.6377
   425.02         11.5397
   425.16         11.4244
   425.30         11.3111
   425.44         11.2225
   425.58         11.1778
   425.72         11.1868
   425.86         11.2458
   426.00         11.3375
   426.14         11.4344
   426.28         11.5084
   426.42         11.5399
   426.56         11.5225
   426.70         11.4629
   426.84         11.3749
   426.98         11.2727
   427.12         11.1708
   427.26         11.0833
   427.40         11.0215
   427.54         10.9925
   427.68         10.9994
   427.82         11.0404
   427.96         11.1053
   428.10         11.1773
   428.24         11.2371
   428.38         11.2674
   428.52         11.2556
   428.66         11.1958
   428.80         11.0890
   428.94         10.9414
   429.08         10.7616
   429.22         10.5575
   429.36         10.3341
   429.50         10.0920
   429.64         9.8309
   429.78         9.5521
   429.92         9.2609
   430.06         8.9676
   430.20         8.6895
   430.34         8.4515
   430.48         8.2857
   430.62         8.2278
   430.76         8.3088
   430.90         8.5450
   431.04         8.9319
   431.18         9.4439
   431.32         10.0362
   431.46         10.6534
   431.60         11.2435
   431.74         11.7689
   431.88         12.2073
   432.02         12.5475
   432.16         12.7899
   432.30         12.9467
   432.44         13.0404
   432.58         13.0982
   432.72         13.1436
   432.86         13.1910
   433.00         13.2467
   433.14         13.3118
   433.28         13.3827
   433.42         13.4503
   433.56         13.5038
   433.70         13.5362
   433.84         13.5464
   433.98         13.5385
   434.12         13.5213
   434.26         13.5086
   434.40         13.5139
   434.54         13.5436
   434.68         13.5958
   434.82         13.6643
   434.96         13.7408
   435.10         13.8168
   435.24         13.8858
   435.38         13.9468
   435.52         14.0059
   435.66         14.0729
   435.80         14.1556
   435.94         14.2557
   436.08         14.3664
   436.22         14.4736
   436.36         14.5577
   436.50         14.5994
   436.64         14.5856
   436.78         14.5146
   436.92         14.3945
   437.06         14.2351
   437.20         14.0398
   437.34         13.8069
   437.48         13.5382
   437.62         13.2445
   437.76         12.9412
   437.90         12.6440
   438.04         12.3661
   438.18         12.1192
   438.32         11.9136
   438.46         11.7602
   438.60         11.6702
   438.74         11.6514
   438.88         11.7048
   439.02         11.8251
   439.16         12.0011
   439.30         12.2138
   439.44         12.4349
   439.58         12.6327
   439.72         12.7808
   439.86         12.8672
   440.00         12.8990
   440.14         12.8977
   440.28         12.8853
   440.42         12.8763
   440.56         12.8796
   440.70         12.9044
   440.84         12.9605
   440.98         13.0533
   441.12         13.1815
   441.26         13.3371
   441.40         13.5068
   441.54         13.6753
   441.68         13.8288
   441.82         13.9571
   441.96         14.0537
   442.10         14.1179
   442.24         14.1546
   442.38         14.1696
   442.52         14.1686
   442.66         14.1595
   442.80         14.1504
   442.94         14.1462
   443.08         14.1495
   443.22         14.1633
   443.36         14.1922
   443.50         14.2401
   443.64         14.3084
   443.78         14.3979
   443.92         14.5086
   444.06         14.6383
   444.20         14.7794
   444.34         14.9185
   444.48         15.0390
   444.62         15.1255
   444.76         15.1656
   444.90         15.1508
   445.04         15.0785
   445.18         14.9549
   445.32         14.7935
   445.46         14.6090
   445.60         14.4158
   445.74         14.2295
   445.88         14.0689
   446.02         13.9543
   446.16         13.9046
   446.30         13.9325
   446.44         14.0420
   446.58         14.2283
   446.72         14.4774
   446.86         14.7655
   447.00         15.0642
   447.14         15.3486
   447.28         15.6014
   447.42         15.8127
   447.56         15.9779
   447.70         16.0950
   447.84         16.1648
   447.98         16.1905
   448.12         16.1770
   448.26         16.1295
   448.40         16.0537
   448.54         15.9594
   448.68         15.8616
   448.82         15.7763
   448.96         15.7153
   449.10         15.6868
   449.24         15.6979
   449.38         15.7529
   449.52         15.8530
   449.66         15.9980
   449.80         16.1869
   449.94         16.4141
   450.08         16.6645
   450.22         16.9140
   450.36         17.1372
   450.50         17.3139
   450.64         17.4321
   450.78         17.4875
   450.92         17.4833
   451.06         17.4291
   451.20         17.3376
   451.34         17.2198
   451.48         17.0812
   451.62         16.9229
   451.76         16.7454
   451.90         16.5495
   452.04         16.3361
   452.18         16.1066
   452.32         15.8661
   452.46         15.6255
   452.60         15.4003
   452.74         15.2055
   452.88         15.0541
   453.02         14.9577
   453.16         14.9249
   453.30         14.9581
   453.44         15.0520
   453.58         15.1930
   453.72         15.3601
   453.86         15.5300
   454.00         15.6836
   454.14         15.8079
   454.28         15.8966
   454.42         15.9517
   454.56         15.9820
   454.70         16.0018
   454.84         16.0260
   454.98         16.0666
   455.12         16.1292
   455.26         16.2112
   455.40         16.3032
   455.54         16.3968
   455.68         16.4874
   455.82         16.5712
   455.96         16.6434
   456.10         16.7008
   456.24         16.7443
   456.38         16.7775
   456.52         16.8051
   456.66         16.8291
   456.80         16.8471
   456.94         16.8560
   457.08         16.8539
   457.22         16.8403
   457.36         16.8134
   457.50         16.7701
   457.64         16.7099
   457.78         16.6375
   457.92         16.5623
   458.06         16.4953
   458.20         16.4441
   458.34         16.4103
   458.48         16.3906
   458.62         16.3812
   458.76         16.3798
   458.90         16.3835
   459.04         16.3872
   459.18         16.3852
   459.32         16.3741
