# File HD240344
# Wavelength [nm]    Normalized Amplitude
   349.70         292.1529
   349.84         293.9115
   349.98         295.9545
   350.12         298.1146
   350.26         300.2203
   350.40         302.1543
   350.54         303.8639
   350.68         305.3052
   350.82         306.3975
   350.96         307.0652
   351.10         307.2870
   351.24         307.0652
   351.38         306.3975
   351.52         305.3052
   351.66         303.8639
   351.80         302.1543
   351.94         300.2203
   352.08         298.1146
   352.22         295.9545
   352.36         293.9115
   352.50         292.1529
   352.64         290.8191
   352.78         290.0201
   352.92         289.8273
   353.06         290.2281
   353.20         291.1020
   353.34         292.2830
   353.48         293.6226
   353.62         295.0154
   353.76         296.3603
   353.90         297.5324
   354.04         298.4250
   354.18         298.9635
   354.32         299.1067
   354.46         298.8572
   354.60         298.2708
   354.74         297.4601
   354.88         296.5375
   355.02         295.5487
   355.16         294.5039
   355.30         293.4580
   355.44         292.5401
   355.58         291.8411
   355.72         291.3337
   355.86         290.9683
   356.00         290.7306
   356.14         290.6172
   356.28         290.6364
   356.42         290.8091
   356.56         291.1359
   356.70         291.5744
   356.84         292.0561
   356.98         292.5151
   357.12         292.9075
   357.26         293.2356
   357.40         293.5460
   357.54         293.8877
   357.68         294.2861
   357.82         294.7122
   357.96         295.0680
   358.10         295.2200
   358.24         295.0474
   358.38         294.4920
   358.52         293.5833
   358.66         292.4256
   358.80         291.1700
   358.94         289.9817
   359.08         289.0037
   359.22         288.3282
   359.36         287.9912
   359.50         287.9692
   359.64         288.1823
   359.78         288.5216
   359.92         288.8811
   360.06         289.1277
   360.20         289.0776
   360.34         288.5763
   360.48         287.5786
   360.62         286.1733
   360.76         284.5394
   360.90         282.8355
   361.04         281.1544
   361.18         279.6027
   361.32         278.3487
   361.46         277.5318
   361.60         277.2117
   361.74         277.3717
   361.88         277.9137
   362.02         278.7047
   362.16         279.6184
   362.30         280.5187
   362.44         281.2878
   362.58         281.8679
   362.72         282.2483
   362.86         282.4720
   363.00         282.6345
   363.14         282.8263
   363.28         283.0954
   363.42         283.4581
   363.56         283.9116
   363.70         284.4515
   363.84         285.0663
   363.98         285.7013
   364.12         286.2451
   364.26         286.5694
   364.40         286.5597
   364.54         286.1532
   364.68         285.3763
   364.82         284.3068
   364.96         283.0553
   365.10         281.7808
   365.24         280.6372
   365.38         279.7285
   365.52         279.1070
   365.66         278.7540
   365.80         278.5739
   365.94         278.4149
   366.08         278.1091
   366.22         277.5374
   366.36         276.6941
   366.50         275.6979
   366.64         274.7202
   366.78         273.9122
   366.92         273.3878
   367.06         273.2409
   367.20         273.5350
   367.34         274.2345
   367.48         275.1801
   367.62         276.1677
   367.76         277.0080
   367.90         277.5502
   368.04         277.7017
   368.18         277.3987
   368.32         276.6128
   368.46         275.3711
   368.60         273.7554
   368.74         271.9250
   368.88         270.1170
   369.02         268.5867
   369.16         267.4913
   369.30         266.8413
   369.44         266.5929
   369.58         266.7196
   369.72         267.1780
   369.86         267.8326
   370.00         268.4791
   370.14         268.9798
   370.28         269.3249
   370.42         269.5834
   370.56         269.8374
   370.70         270.1208
   370.84         270.4146
   370.98         270.6879
   371.12         270.9091
   371.26         271.0872
   371.40         271.3087
   371.54         271.7041
   371.68         272.3915
   371.82         273.4052
   371.96         274.6886
   372.10         276.1278
   372.24         277.5427
   372.38         278.7199
   372.52         279.5323
   372.66         280.0454
   372.80         280.5022
   372.94         281.2097
   373.08         282.4354
   373.22         284.3321
   373.36         286.8772
   373.50         289.8865
   373.64         293.0517
   373.78         295.9900
   373.92         298.3213
   374.06         299.7444
   374.20         300.1302
   374.34         299.5682
   374.48         298.3304
   374.62         296.8393
   374.76         295.6400
   374.90         295.3554
   375.04         296.5896
   375.18         299.7455
   375.32         304.8564
   375.46         311.5596
   375.60         319.1416
   375.74         326.5744
   375.88         332.6571
   376.02         336.2937
   376.16         336.7966
   376.30         334.0592
   376.44         328.5785
   376.58         321.3642
   376.72         313.7397
   376.86         307.0916
   377.00         302.6267
   377.14         301.2182
   377.28         303.3159
   377.42         308.8915
   377.56         317.4835
   377.70         328.2659
   377.84         340.1404
   377.98         351.8849
   378.12         362.2896
   378.26         370.2467
   378.40         374.8521
   378.54         375.5552
   378.68         372.2656
   378.82         365.3593
   378.96         355.5950
   379.10         344.0081
   379.24         331.8012
   379.38         320.2361
   379.52         310.5256
   379.66         303.6976
   379.80         300.4571
   379.94         301.1001
   380.08         305.5602
   380.22         313.5036
   380.36         324.3110
   380.50         337.0291
   380.64         350.4259
   380.78         363.1953
   380.92         374.2491
   381.06         382.9196
   381.20         388.9808
   381.34         392.5792
   381.48         394.1099
   381.62         394.0333
   381.76         392.7485
   381.90         390.5240
   382.04         387.4288
   382.18         383.2923
   382.32         377.7933
   382.46         370.6725
   382.60         361.9050
   382.74         351.7516
   382.88         340.7198
   383.02         329.4864
   383.16         318.8519
   383.30         309.7308
   383.44         303.1018
   383.58         299.8301
   383.72         300.4045
   383.86         304.8016
   384.00         312.5536
   384.14         322.8736
   384.28         334.7883
   384.42         347.2859
   384.56         359.4307
   384.70         370.4625
   384.84         379.8975
   384.98         387.5955
   385.12         393.7106
   385.26         398.5375
   385.40         402.3847
   385.54         405.4937
   385.68         407.9918
   385.82         409.9151
   385.96         411.2503
   386.10         411.9460
   386.24         411.9156
   386.38         411.0846
   386.52         409.4601
   386.66         407.1295
   386.80         404.2122
   386.94         400.7991
   387.08         396.9003
   387.22         392.4237
   387.36         387.1764
   387.50         380.8830
   387.64         373.2309
   387.78         363.9489
   387.92         352.9434
   388.06         340.4300
   388.20         326.9618
   388.34         313.3768
   388.48         300.7091
   388.62         290.0336
   388.76         282.3084
   388.90         278.2884
   389.04         278.4556
   389.18         282.9105
   389.32         291.3153
   389.46         302.9559
   389.60         316.8487
   389.74         331.8716
   389.88         346.8888
   390.02         360.8971
   390.16         373.1587
   390.30         383.2502
   390.44         391.0617
   390.58         396.7427
   390.72         400.5869
   390.86         402.9166
   391.00         404.0370
   391.14         404.2165
   391.28         403.6648
   391.42         402.5465
   391.56         400.9835
   391.70         399.0375
   391.84         396.7315
   391.98         394.1139
   392.12         391.2726
   392.26         388.2921
   392.40         385.2787
   392.54         382.4028
   392.68         379.8801
   392.82         377.9212
   392.96         376.6738
   393.10         376.1940
   393.24         376.4643
   393.38         377.4280
   393.52         378.9941
   393.66         380.9993
   393.80         383.1860
   393.94         385.2624
   394.08         386.9580
   394.22         388.0352
   394.36         388.3291
   394.50         387.7672
   394.64         386.3296
   394.78         384.0134
   394.92         380.8548
   395.06         376.9465
   395.20         372.3552
   395.34         367.0508
   395.48         360.9013
   395.62         353.6735
   395.76         345.1091
   395.90         335.0604
   396.04         323.6002
   396.18         311.0780
   396.32         298.0995
   396.46         285.4750
   396.60         274.1442
   396.74         265.0303
   396.88         258.8937
   397.02         256.2429
   397.16         257.2770
   397.30         261.8772
   397.44         269.6262
   397.58         279.8519
   397.72         291.7035
   397.86         304.2528
   398.00         316.6140
   398.14         328.0234
   398.28         337.9209
   398.42         346.0377
   398.56         352.3974
   398.70         357.2394
   398.84         360.8923
   398.98         363.6457
   399.12         365.7092
   399.26         367.2026
   399.40         368.1399
   399.54         368.4589
   399.68         368.0776
   399.82         366.9570
   399.96         365.1355
   400.10         362.7116
   400.24         359.8401
   400.38         356.7263
   400.52         353.5780
   400.66         350.5663
   400.80         347.8181
   400.94         345.4291
   401.08         343.4427
   401.22         341.7977
   401.36         340.3264
   401.50         338.8173
   401.64         337.1151
   401.78         335.1912
   401.92         333.1321
   402.06         331.1085
   402.20         329.3367
   402.34         328.0372
   402.48         327.4136
   402.62         327.5980
   402.76         328.6078
   402.90         330.3488
   403.04         332.6417
   403.18         335.2729
   403.32         338.0289
   403.46         340.6895
   403.60         343.0318
   403.74         344.8601
   403.88         346.0515
   404.02         346.6068
   404.16         346.6588
   404.30         346.4075
   404.44         346.0225
   404.58         345.6001
   404.72         345.1784
   404.86         344.7667
   405.00         344.3731
   405.14         344.0072
   405.28         343.6559
   405.42         343.2801
   405.56         342.8275
   405.70         342.2561
   405.84         341.5398
   405.98         340.6422
   406.12         339.5167
   406.26         338.1513
   406.40         336.5895
   406.54         334.9043
   406.68         333.1828
   406.82         331.5237
   406.96         330.0196
   407.10         328.7370
   407.24         327.7001
   407.38         326.8779
   407.52         326.1902
   407.66         325.5346
   407.80         324.8080
   407.94         323.9059
   408.08         322.7049
   408.22         321.0590
   408.36         318.8105
   408.50         315.7762
   408.64         311.7389
   408.78         306.4798
   408.92         299.8312
   409.06         291.7385
   409.20         282.3229
   409.34         271.9270
   409.48         261.1001
   409.62         250.5320
   409.76         240.9672
   409.90         233.1118
   410.04         227.5514
   410.18         224.7019
   410.32         224.7604
   410.46         227.6588
   410.60         233.0684
   410.74         240.4442
   410.88         249.0938
   411.02         258.2690
   411.16         267.2641
   411.30         275.5078
   411.44         282.6248
   411.58         288.4659
   411.72         293.0935
   411.86         296.7136
   412.00         299.5825
   412.14         301.9231
   412.28         303.8821
   412.42         305.5377
   412.56         306.9113
   412.70         307.9888
   412.84         308.7398
   412.98         309.1063
   413.12         309.0027
   413.26         308.3455
   413.40         307.0915
   413.54         305.2806
   413.68         303.0557
   413.82         300.6393
   413.96         298.2693
   414.10         296.1430
   414.24         294.4049
   414.38         293.1593
   414.52         292.4763
   414.66         292.3763
   414.80         292.8185
   414.94         293.7126
   415.08         294.9344
   415.22         296.3466
   415.36         297.8103
   415.50         299.1915
   415.64         300.3831
   415.78         301.3205
   415.92         301.9738
   416.06         302.3408
   416.20         302.4336
   416.34         302.2754
   416.48         301.8923
   416.62         301.3103
   416.76         300.5767
   416.90         299.7672
   417.04         298.9635
   417.18         298.2180
   417.32         297.5373
   417.46         296.9099
   417.60         296.3325
   417.74         295.8089
   417.88         295.3400
   418.02         294.8939
   418.16         294.4246
   418.30         293.8981
   418.44         293.2913
   418.58         292.6138
   418.72         291.9064
   418.86         291.2245
   419.00         290.6294
   419.14         290.1681
   419.28         289.8690
   419.42         289.7347
   419.56         289.7292
   419.70         289.7964
   419.84         289.8799
   419.98         289.9284
   420.12         289.8987
   420.26         289.7581
   420.40         289.4926
   420.54         289.1033
   420.68         288.5969
   420.82         287.9958
   420.96         287.3274
   421.10         286.6218
   421.24         285.9131
   421.38         285.2168
   421.52         284.5389
   421.66         283.8881
   421.80         283.2712
   421.94         282.6870
   422.08         282.1197
   422.22         281.5493
   422.36         280.9657
   422.50         280.3664
   422.64         279.7559
   422.78         279.1505
   422.92         278.5842
   423.06         278.1051
   423.20         277.7498
   423.34         277.5385
   423.48         277.4821
   423.62         277.5795
   423.76         277.8157
   423.90         278.1524
   424.04         278.5322
   424.18         278.9022
   424.32         279.2206
   424.46         279.4509
   424.60         279.5501
   424.74         279.4692
   424.88         279.1787
   425.02         278.6859
   425.16         278.0288
   425.30         277.2620
   425.44         276.4372
   425.58         275.5970
   425.72         274.7716
   425.86         273.9736
   426.00         273.2088
   426.14         272.4853
   426.28         271.8104
   426.42         271.1844
   426.56         270.6016
   426.70         270.0612
   426.84         269.5710
   426.98         269.1302
   427.12         268.7274
   427.26         268.3556
   427.40         268.0219
   427.54         267.7429
   427.68         267.5291
   427.82         267.3793
   427.96         267.2774
   428.10         267.2040
   428.24         267.1633
   428.38         267.1825
   428.52         267.2861
   428.66         267.4774
   428.80         267.7344
   428.94         268.0195
   429.08         268.3067
   429.22         268.5792
   429.36         268.8134
   429.50         268.9854
   429.64         269.0702
   429.78         269.0453
   429.92         268.9032
   430.06         268.6504
   430.20         268.3029
   430.34         267.8853
   430.48         267.4293
   430.62         266.9660
   430.76         266.5239
   430.90         266.1172
   431.04         265.7317
   431.18         265.3295
   431.32         264.8624
   431.46         264.2911
   431.60         263.5856
   431.74         262.6992
   431.88         261.5525
   432.02         260.0671
   432.16         258.1919
   432.30         255.8731
   432.44         253.0188
   432.58         249.4987
   432.72         245.1653
   432.86         239.8839
   433.00         233.5909
   433.14         226.3642
   433.28         218.4519
   433.42         210.2519
   433.56         202.2677
   433.70         195.0522
   433.84         189.1362
   433.98         184.9588
   434.12         182.8220
   434.26         182.8605
   434.40         185.0294
   434.54         189.1320
   434.68         194.8519
   434.82         201.7538
   434.96         209.3000
   435.10         216.9301
   435.24         224.1618
   435.38         230.6516
   435.52         236.2204
   435.66         240.8467
   435.80         244.6156
   435.94         247.6427
   436.08         250.0298
   436.22         251.8718
   436.36         253.2601
   436.50         254.2705
   436.64         254.9608
   436.78         255.3914
   436.92         255.6356
   437.06         255.7569
   437.20         255.7797
   437.34         255.6666
   437.48         255.3187
   437.62         254.6169
   437.76         253.4863
   437.90         251.9325
   438.04         250.0339
   438.18         247.9176
   438.32         245.7386
   438.46         243.6724
   438.60         241.8956
   438.74         240.5613
   438.88         239.7782
   439.02         239.5840
   439.16         239.9496
   439.30         240.8013
   439.44         242.0274
   439.58         243.4685
   439.72         244.9129
   439.86         246.1375
   440.00         246.9762
   440.14         247.3617
   440.28         247.3250
   440.42         246.9643
   440.56         246.4025
   440.70         245.7413
   440.84         245.0345
   440.98         244.2944
   441.12         243.5094
   441.26         242.6528
   441.40         241.7009
   441.54         240.6527
   441.68         239.5302
   441.82         238.3640
   441.96         237.1769
   442.10         235.9904
   442.24         234.8359
   442.38         233.7476
   442.52         232.7572
   442.66         231.8928
   442.80         231.1704
   442.94         230.5933
   443.08         230.1685
   443.22         229.9089
   443.36         229.8057
   443.50         229.8248
   443.64         229.9353
   443.78         230.1323
   443.92         230.4331
   444.06         230.8552
   444.20         231.4026
   444.34         232.0552
   444.48         232.7673
   444.62         233.4784
   444.76         234.1265
   444.90         234.6578
   445.04         235.0243
   445.18         235.1971
   445.32         235.1807
   445.46         234.9942
   445.60         234.6443
   445.74         234.0958
   445.88         233.2628
   446.02         232.0588
   446.16         230.4673
   446.30         228.5726
   446.44         226.5298
   446.58         224.5125
   446.72         222.6717
   446.86         221.1145
   447.00         219.9057
   447.14         219.0878
   447.28         218.6979
   447.42         218.7607
   447.56         219.2666
   447.70         220.1534
   447.84         221.3227
   447.98         222.6582
   448.12         224.0438
   448.26         225.3837
   448.40         226.5992
   448.54         227.6484
   448.68         228.5470
   448.82         229.3446
   448.96         230.0825
   449.10         230.7709
   449.24         231.3908
   449.38         231.8919
   449.52         232.2156
   449.66         232.3393
   449.80         232.2889
   449.94         232.1153
   450.08         231.8650
   450.22         231.5733
   450.36         231.2647
   450.50         230.9566
   450.64         230.6699
   450.78         230.4287
   450.92         230.2437
   451.06         230.1043
   451.20         229.9983
   451.34         229.9233
   451.48         229.8768
   451.62         229.8571
   451.76         229.8626
   451.90         229.8769
   452.04         229.8820
   452.18         229.8849
   452.32         229.9131
   452.46         229.9859
   452.60         230.0961
   452.74         230.2121
   452.88         230.2954
