# File HD25361
# Wavelength [nm]    Normalized Amplitude
   349.70         40.7917
   349.84         40.8316
   349.98         40.9800
   350.12         41.2068
   350.26         41.4946
   350.40         41.8274
   350.54         42.1795
   350.68         42.5114
   350.82         42.7840
   350.96         42.9651
   351.10         43.0290
   351.24         42.9651
   351.38         42.7840
   351.52         42.5114
   351.66         42.1795
   351.80         41.8274
   351.94         41.4946
   352.08         41.2068
   352.22         40.9800
   352.36         40.8316
   352.50         40.7917
   352.64         40.9107
   352.78         41.2346
   352.92         41.7758
   353.06         42.5173
   353.20         43.4190
   353.34         44.4182
   353.48         45.4333
   353.62         46.3761
   353.76         47.1811
   353.90         47.8206
   354.04         48.2922
   354.18         48.6004
   354.32         48.7488
   354.46         48.7425
   354.60         48.5906
   354.74         48.3170
   354.88         47.9672
   355.02         47.5933
   355.16         47.2337
   355.30         46.9043
   355.44         46.5950
   355.58         46.2813
   355.72         45.9500
   355.86         45.6071
   356.00         45.2677
   356.14         44.9501
   356.28         44.6755
   356.42         44.4667
   356.56         44.3359
   356.70         44.2716
   356.84         44.2358
   356.98         44.1746
   357.12         44.0295
   357.26         43.7460
   357.40         43.2853
   357.54         42.6275
   357.68         41.7774
   357.82         40.7761
   357.96         39.7110
   358.10         38.7111
   358.24         37.9222
   358.38         37.4729
   358.52         37.4405
   358.66         37.8388
   358.80         38.6325
   358.94         39.7581
   359.08         41.1317
   359.22         42.6356
   359.36         44.1171
   359.50         45.4242
   359.64         46.4374
   359.78         47.0759
   359.92         47.3040
   360.06         47.1381
   360.20         46.6491
   360.34         45.9462
   360.48         45.1426
   360.62         44.3353
   360.76         43.6042
   360.90         43.0104
   361.04         42.6021
   361.18         42.4234
   361.32         42.5151
   361.46         42.8965
   361.60         43.5466
   361.74         44.3953
   361.88         45.3297
   362.02         46.2274
   362.16         46.9855
   362.30         47.5240
   362.44         47.8027
   362.58         47.8406
   362.72         47.7027
   362.86         47.4708
   363.00         47.2138
   363.14         46.9858
   363.28         46.8384
   363.42         46.8182
   363.56         46.9478
   363.70         47.2107
   363.84         47.5678
   363.98         47.9840
   364.12         48.4239
   364.26         48.8481
   364.40         49.2356
   364.54         49.6026
   364.68         49.9969
   364.82         50.4731
   364.96         51.0675
   365.10         51.7910
   365.24         52.6278
   365.38         53.5286
   365.52         54.4159
   365.66         55.2135
   365.80         55.8768
   365.94         56.3920
   366.08         56.7685
   366.22         57.0310
   366.36         57.2130
   366.50         57.3558
   366.64         57.4882
   366.78         57.6110
   366.92         57.7140
   367.06         57.7878
   367.20         57.8174
   367.34         57.7710
   367.48         57.6192
   367.62         57.3585
   367.76         57.0234
   367.90         56.6859
   368.04         56.4277
   368.18         56.3163
   368.32         56.4065
   368.46         56.7355
   368.60         57.3216
   368.74         58.1692
   368.88         59.2450
   369.02         60.4649
   369.16         61.7105
   369.30         62.8540
   369.44         63.7726
   369.58         64.3638
   369.72         64.5655
   369.86         64.3748
   370.00         63.8598
   370.14         63.1560
   370.28         62.4342
   370.42         61.8628
   370.56         61.5744
   370.70         61.6277
   370.84         62.0036
   370.98         62.6368
   371.12         63.4372
   371.26         64.3039
   371.40         65.1243
   371.54         65.7754
   371.68         66.1559
   371.82         66.2118
   371.96         65.9324
   372.10         65.3337
   372.24         64.4494
   372.38         63.3460
   372.52         62.1290
   372.66         60.9287
   372.80         59.8785
   372.94         59.0925
   373.08         58.6385
   373.22         58.5174
   373.36         58.6644
   373.50         58.9765
   373.64         59.3436
   373.78         59.6732
   373.92         59.9191
   374.06         60.0901
   374.20         60.2382
   374.34         60.4238
   374.48         60.6708
   374.62         60.9542
   374.76         61.2365
   374.90         61.5127
   375.04         61.8214
   375.18         62.2106
   375.32         62.6957
   375.46         63.2410
   375.60         63.7667
   375.74         64.1828
   375.88         64.4285
   376.02         64.5007
   376.16         64.4526
   376.30         64.3805
   376.44         64.4168
   376.58         64.7027
   376.72         65.3359
   376.86         66.3327
   377.00         67.6329
   377.14         69.1411
   377.28         70.7652
   377.42         72.4187
   377.56         73.9998
   377.70         75.3888
   377.84         76.4722
   377.98         77.1555
   378.12         77.3680
   378.26         77.0748
   378.40         76.2818
   378.54         75.0372
   378.68         73.4391
   378.82         71.6345
   378.96         69.8178
   379.10         68.2268
   379.24         67.0886
   379.38         66.5480
   379.52         66.6543
   379.66         67.3911
   379.80         68.6927
   379.94         70.4269
   380.08         72.3978
   380.22         74.3952
   380.36         76.2492
   380.50         77.8447
   380.64         79.0965
   380.78         79.9307
   380.92         80.3024
   381.06         80.2142
   381.20         79.7089
   381.34         78.8469
   381.48         77.6940
   381.62         76.3204
   381.76         74.7887
   381.90         73.1274
   382.04         71.3326
   382.18         69.4089
   382.32         67.3864
   382.46         65.3053
   382.60         63.2072
   382.74         61.1539
   382.88         59.2530
   383.02         57.6472
   383.16         56.4660
   383.30         55.7857
   383.44         55.6282
   383.58         55.9748
   383.72         56.7707
   383.86         57.9358
   384.00         59.3903
   384.14         61.0682
   384.28         62.8923
   384.42         64.7467
   384.56         66.4918
   384.70         67.9985
   384.84         69.1861
   384.98         70.0486
   385.12         70.6425
   385.26         71.0519
   385.40         71.3634
   385.54         71.6437
   385.68         71.9160
   385.82         72.1565
   385.96         72.3180
   386.10         72.3643
   386.24         72.2927
   386.38         72.1276
   386.52         71.8957
   386.66         71.6095
   386.80         71.2637
   386.94         70.8406
   387.08         70.3321
   387.22         69.7544
   387.36         69.1423
   387.50         68.5420
   387.64         67.9964
   387.78         67.5254
   387.92         67.1353
   388.06         66.8407
   388.20         66.6702
   388.34         66.6674
   388.48         66.8871
   388.62         67.3837
   388.76         68.1985
   388.90         69.3426
   389.04         70.7778
   389.18         72.4244
   389.32         74.1839
   389.46         75.9475
   389.60         77.6149
   389.74         79.1182
   389.88         80.4156
   390.02         81.4724
   390.16         82.2602
   390.30         82.7680
   390.44         82.9990
   390.58         82.9590
   390.72         82.6503
   390.86         82.0715
   391.00         81.2247
   391.14         80.1180
   391.28         78.7618
   391.42         77.1585
   391.56         75.2904
   391.70         73.1159
   391.84         70.5816
   391.98         67.6451
   392.12         64.3019
   392.26         60.6059
   392.40         56.6601
   392.54         52.6008
   392.68         48.6040
   392.82         44.8896
   392.96         41.6984
   393.10         39.2557
   393.24         37.7488
   393.38         37.3074
   393.52         37.9756
   393.66         39.6980
   393.80         42.3293
   393.94         45.6589
   394.08         49.4441
   394.22         53.4352
   394.36         57.3954
   394.50         61.1204
   394.64         64.4550
   394.78         67.2912
   394.92         69.5466
   395.06         71.1434
   395.20         72.0011
   395.34         72.0383
   395.48         71.1853
   395.62         69.4087
   395.76         66.7434
   395.90         63.3157
   396.04         59.3501
   396.18         55.1574
   396.32         51.1140
   396.46         47.6286
   396.60         45.0909
   396.74         43.8100
   396.88         43.9686
   397.02         45.6132
   397.16         48.6634
   397.30         52.9242
   397.44         58.0993
   397.58         63.8181
   397.72         69.6846
   397.86         75.3440
   398.00         80.5251
   398.14         85.0429
   398.28         88.7946
   398.42         91.7590
   398.56         93.9990
   398.70         95.6501
   398.84         96.8858
   398.98         97.8772
   399.12         98.7536
   399.26         99.5874
   399.40         100.4171
   399.54         101.2810
   399.68         102.2292
   399.82         103.3061
   399.96         104.5338
   400.10         105.9108
   400.24         107.4201
   400.38         109.0382
   400.52         110.7443
   400.66         112.5061
   400.80         114.2603
   400.94         115.9241
   401.08         117.4215
   401.22         118.7077
   401.36         119.7769
   401.50         120.6383
   401.64         121.2753
   401.78         121.6367
   401.92         121.6754
   402.06         121.3912
   402.20         120.8454
   402.34         120.1416
   402.48         119.4008
   402.62         118.7379
   402.76         118.2417
   402.90         117.9601
   403.04         117.8912
   403.18         117.9854
   403.32         118.1738
   403.46         118.4017
   403.60         118.6461
   403.74         118.9097
   403.88         119.1919
   404.02         119.4585
   404.16         119.6257
   404.30         119.5938
   404.44         119.3191
   404.58         118.8521
   404.72         118.3127
   404.86         117.8227
   405.00         117.4445
   405.14         117.1746
   405.28         116.9747
   405.42         116.8085
   405.56         116.6710
   405.70         116.5798
   405.84         116.5598
   405.98         116.6422
   406.12         116.8322
   406.26         117.0571
   406.40         117.1699
   406.54         117.0201
   406.68         116.5289
   406.82         115.7184
   406.96         114.6836
   407.10         113.5470
   407.24         112.4288
   407.38         111.4437
   407.52         110.7139
   407.66         110.3740
   407.80         110.5552
   407.94         111.3587
   408.08         112.8188
   408.22         114.8695
   408.36         117.3295
   408.50         119.9320
   408.64         122.3716
   408.78         124.3354
   408.92         125.5558
   409.06         125.8940
   409.20         125.3857
   409.34         124.1946
   409.48         122.5279
   409.62         120.5828
   409.76         118.5525
   409.90         116.6529
   410.04         115.1150
   410.18         114.1459
   410.32         113.8801
   410.46         114.3404
   410.60         115.4291
   410.74         116.9485
   410.88         118.6434
   411.02         120.2633
   411.16         121.6070
   411.30         122.5331
   411.44         122.9556
   411.58         122.8502
   411.72         122.2561
   411.86         121.2503
   412.00         119.9168
   412.14         118.3592
   412.28         116.7358
   412.42         115.2617
   412.56         114.1723
   412.70         113.6626
   412.84         113.8199
   412.98         114.5911
   413.12         115.8179
   413.26         117.3187
   413.40         118.9489
   413.54         120.5977
   413.68         122.1595
   413.82         123.5211
   413.96         124.5755
   414.10         125.2409
   414.24         125.4827
   414.38         125.3302
   414.52         124.8770
   414.66         124.2642
   414.80         123.6572
   414.94         123.2129
   415.08         123.0473
   415.22         123.2199
   415.36         123.7268
   415.50         124.5130
   415.64         125.5092
   415.78         126.6370
   415.92         127.7772
   416.06         128.7492
   416.20         129.3421
   416.34         129.3733
   416.48         128.7288
   416.62         127.3833
   416.76         125.4103
   416.90         122.9727
   417.04         120.3017
   417.18         117.6621
   417.32         115.3052
   417.46         113.4318
   417.60         112.1832
   417.74         111.6409
   417.88         111.8235
   418.02         112.6888
   418.16         114.1288
   418.30         115.9576
   418.44         117.9207
   418.58         119.7584
   418.72         121.2818
   418.86         122.3895
   419.00         123.0333
   419.14         123.1991
   419.28         122.9254
   419.42         122.3098
   419.56         121.4865
   419.70         120.6095
   419.84         119.8433
   419.98         119.3475
   420.12         119.2506
   420.26         119.6254
   420.40         120.4872
   420.54         121.8064
   420.68         123.5111
   420.82         125.4813
   420.96         127.5492
   421.10         129.5207
   421.24         131.2022
   421.38         132.4178
   421.52         133.0483
   421.66         133.0813
   421.80         132.6132
   421.94         131.7942
   422.08         130.7635
   422.22         129.6317
   422.36         128.4909
   422.50         127.4176
   422.64         126.4710
   422.78         125.7012
   422.92         125.1643
   423.06         124.9251
   423.20         125.0238
   423.34         125.4294
   423.48         126.0341
   423.62         126.6915
   423.76         127.2780
   423.90         127.7304
   424.04         128.0591
   424.18         128.3373
   424.32         128.6351
   424.46         128.9619
   424.60         129.2717
   424.74         129.5097
   424.88         129.6661
   425.02         129.7946
   425.16         129.9919
   425.30         130.3661
   425.44         130.9967
   425.58         131.8883
   425.72         132.9562
   425.86         134.0526
   426.00         135.0127
   426.14         135.7139
   426.28         136.1120
   426.42         136.2356
   426.56         136.1528
   426.70         135.9375
   426.84         135.6460
   426.98         135.3083
   427.12         134.9414
   427.26         134.5568
   427.40         134.1571
   427.54         133.7312
   427.68         133.2455
   427.82         132.6386
   427.96         131.8459
   428.10         130.8211
   428.24         129.5409
   428.38         128.0186
   428.52         126.2983
   428.66         124.4346
   428.80         122.4814
   428.94         120.4769
   429.08         118.4372
   429.22         116.3692
   429.36         114.2858
   429.50         112.2192
   429.64         110.2242
   429.78         108.3844
   429.92         106.8058
   430.06         105.5937
   430.20         104.8483
   430.34         104.6849
   430.48         105.2382
   430.62         106.6142
   430.76         108.8223
   430.90         111.7563
   431.04         115.2197
   431.18         118.9540
   431.32         122.6836
   431.46         126.1848
   431.60         129.3241
   431.74         132.0374
   431.88         134.2946
   432.02         136.0825
   432.16         137.4124
   432.30         138.3154
   432.44         138.8089
   432.58         138.8589
   432.72         138.3882
   432.86         137.3487
   433.00         135.7761
   433.14         133.7754
   433.28         131.4880
   433.42         129.0932
   433.56         126.8051
   433.70         124.8416
   433.84         123.3807
   433.98         122.5517
   434.12         122.4590
   434.26         123.1602
   434.40         124.6348
   434.54         126.7876
   434.68         129.4615
   434.82         132.4588
   434.96         135.5758
   435.10         138.6441
   435.24         141.5646
   435.38         144.3051
   435.52         146.8688
   435.66         149.2519
   435.80         151.4250
   435.94         153.3363
   436.08         154.8960
   436.22         155.9731
   436.36         156.4535
   436.50         156.3222
   436.64         155.6905
   436.78         154.7443
   436.92         153.6553
   437.06         152.5104
   437.20         151.3024
   437.34         149.9928
   437.48         148.5789
   437.62         147.0993
   437.76         145.5929
   437.90         144.0769
   438.04         142.5621
   438.18         141.0719
   438.32         139.6632
   438.46         138.4290
   438.60         137.4410
   438.74         136.7084
   438.88         136.2258
   439.02         136.0275
   439.16         136.1432
   439.30         136.5285
   439.44         137.0664
   439.58         137.6112
   439.72         138.0434
   439.86         138.3355
   440.00         138.5595
   440.14         138.8039
   440.28         139.0946
   440.42         139.3871
   440.56         139.6160
   440.70         139.7472
   440.84         139.7819
   440.98         139.7458
   441.12         139.6782
   441.26         139.6158
   441.40         139.5978
   441.54         139.6781
   441.68         139.8947
   441.82         140.2312
   441.96         140.6337
   442.10         141.0380
   442.24         141.3860
   442.38         141.6632
   442.52         141.9107
   442.66         142.1801
   442.80         142.4762
   442.94         142.7465
   443.08         142.9327
   443.22         143.0210
   443.36         143.0517
   443.50         143.0810
   443.64         143.1406
   443.78         143.2353
   443.92         143.3476
   444.06         143.4384
   444.20         143.4549
   444.34         143.3489
   444.48         143.0956
   444.62         142.6981
   444.76         142.1690
   444.90         141.5285
   445.04         140.8239
   445.18         140.1108
   445.32         139.4172
   445.46         138.7346
   445.60         138.0604
   445.74         137.4550
   445.88         137.0480
   446.02         137.0001
   446.16         137.4520
   446.30         138.4935
   446.44         140.1618
   446.58         142.4293
   446.72         145.1794
   446.86         148.2254
   447.00         151.3698
   447.14         154.4401
   447.28         157.2925
   447.42         159.8023
   447.56         161.8474
   447.70         163.3207
   447.84         164.1605
   447.98         164.3618
   448.12         163.9686
   448.26         163.0848
   448.40         161.8924
   448.54         160.6320
   448.68         159.5430
   448.82         158.7955
   448.96         158.4895
   449.10         158.6898
   449.24         159.4303
   449.38         160.7032
   449.52         162.4679
   449.66         164.6638
   449.80         167.1926
   449.94         169.8954
   450.08         172.5505
   450.22         174.9123
   450.36         176.7911
   450.50         178.0848
   450.64         178.7495
   450.78         178.7806
   450.92         178.2128
   451.06         177.1086
   451.20         175.5423
   451.34         173.5885
   451.48         171.3212
   451.62         168.8377
   451.76         166.2477
   451.90         163.6296
   452.04         161.0274
   452.18         158.4896
   452.32         156.1174
   452.46         154.0551
   452.60         152.4350
   452.74         151.3423
   452.88         150.8176
   453.02         150.8669
   453.16         151.4440
   453.30         152.4403
   453.44         153.6960
   453.58         155.0064
   453.72         156.1689
   453.86         157.0415
   454.00         157.5373
   454.14         157.6030
   454.28         157.2471
   454.42         156.5703
   454.56         155.7383
   454.70         154.9424
