# File HD2506
# Wavelength [nm]    Normalized Amplitude
   349.70         10.1812
   349.84         10.1441
   349.98         10.1592
   350.12         10.2174
   350.26         10.3087
   350.40         10.4240
   350.54         10.5536
   350.68         10.6841
   350.82         10.7980
   350.96         10.8767
   351.10         10.9048
   351.24         10.8767
   351.38         10.7980
   351.52         10.6841
   351.66         10.5536
   351.80         10.4240
   351.94         10.3087
   352.08         10.2174
   352.22         10.1592
   352.36         10.1441
   352.50         10.1812
   352.64         10.2750
   352.78         10.4242
   352.92         10.6222
   353.06         10.8561
   353.20         11.1076
   353.34         11.3553
   353.48         11.5784
   353.62         11.7612
   353.76         11.8965
   353.90         11.9836
   354.04         12.0250
   354.18         12.0231
   354.32         11.9796
   354.46         11.8967
   354.60         11.7783
   354.74         11.6311
   354.88         11.4644
   355.02         11.2881
   355.16         11.1074
   355.30         10.9215
   355.44         10.7269
   355.58         10.5212
   355.72         10.3031
   355.86         10.0733
   356.00         9.8359
   356.14         9.6001
   356.28         9.3790
   356.42         9.1849
   356.56         9.0234
   356.70         8.8932
   356.84         8.7882
   356.98         8.6990
   357.12         8.6140
   357.26         8.5214
   357.40         8.4115
   357.54         8.2791
   357.68         8.1246
   357.82         7.9567
   357.96         7.7954
   358.10         7.6695
   358.24         7.6111
   358.38         7.6501
   358.52         7.8096
   358.66         8.1009
   358.80         8.5181
   358.94         9.0373
   359.08         9.6195
   359.22         10.2176
   359.36         10.7847
   359.50         11.2808
   359.64         11.6744
   359.78         11.9457
   359.92         12.0892
   360.06         12.1141
   360.20         12.0423
   360.34         11.9030
   360.48         11.7243
   360.62         11.5277
   360.76         11.3307
   360.90         11.1505
   361.04         11.0046
   361.18         10.9076
   361.32         10.8711
   361.46         10.9034
   361.60         11.0058
   361.74         11.1698
   361.88         11.3767
   362.02         11.6018
   362.16         11.8205
   362.30         12.0137
   362.44         12.1717
   362.58         12.2926
   362.72         12.3795
   362.86         12.4378
   363.00         12.4719
   363.14         12.4855
   363.28         12.4853
   363.42         12.4813
   363.56         12.4827
   363.70         12.4939
   363.84         12.5146
   363.98         12.5428
   364.12         12.5750
   364.26         12.6073
   364.40         12.6398
   364.54         12.6810
   364.68         12.7479
   364.82         12.8598
   364.96         13.0293
   365.10         13.2567
   365.24         13.5307
   365.38         13.8327
   365.52         14.1388
   365.66         14.4223
   365.80         14.6608
   365.94         14.8415
   366.08         14.9630
   366.22         15.0330
   366.36         15.0642
   366.50         15.0702
   366.64         15.0629
   366.78         15.0501
   366.92         15.0354
   367.06         15.0198
   367.20         15.0022
   367.34         14.9767
   367.48         14.9338
   367.62         14.8656
   367.76         14.7724
   367.90         14.6650
   368.04         14.5595
   368.18         14.4694
   368.32         14.4027
   368.46         14.3655
   368.60         14.3654
   368.74         14.4106
   368.88         14.5054
   369.02         14.6447
   369.16         14.8121
   369.30         14.9827
   369.44         15.1292
   369.58         15.2274
   369.72         15.2600
   369.86         15.2210
   370.00         15.1188
   370.14         14.9771
   370.28         14.8299
   370.42         14.7105
   370.56         14.6410
   370.70         14.6234
   370.84         14.6418
   370.98         14.6743
   371.12         14.7042
   371.26         14.7223
   371.40         14.7217
   371.54         14.6919
   371.68         14.6219
   371.82         14.5073
   371.96         14.3518
   372.10         14.1625
   372.24         13.9458
   372.38         13.7070
   372.52         13.4550
   372.66         13.2033
   372.80         12.9668
   372.94         12.7564
   373.08         12.5742
   373.22         12.4137
   373.36         12.2651
   373.50         12.1237
   373.64         11.9915
   373.78         11.8747
   373.92         11.7821
   374.06         11.7246
   374.20         11.7137
   374.34         11.7573
   374.48         11.8547
   374.62         11.9932
   374.76         12.1552
   374.90         12.3290
   375.04         12.5131
   375.18         12.7112
   375.32         12.9231
   375.46         13.1391
   375.60         13.3419
   375.74         13.5144
   375.88         13.6474
   376.02         13.7444
   376.16         13.8206
   376.30         13.8988
   376.44         14.0048
   376.58         14.1609
   376.72         14.3782
   376.86         14.6515
   377.00         14.9623
   377.14         15.2866
   377.28         15.5999
   377.42         15.8789
   377.56         16.1012
   377.70         16.2458
   377.84         16.2944
   377.98         16.2366
   378.12         16.0716
   378.26         15.8073
   378.40         15.4573
   378.54         15.0394
   378.68         14.5762
   378.82         14.0963
   378.96         13.6334
   379.10         13.2226
   379.24         12.8952
   379.38         12.6719
   379.52         12.5595
   379.66         12.5522
   379.80         12.6339
   379.94         12.7789
   380.08         12.9542
   380.22         13.1263
   380.36         13.2644
   380.50         13.3433
   380.64         13.3424
   380.78         13.2458
   380.92         13.0462
   381.06         12.7480
   381.20         12.3658
   381.34         11.9206
   381.48         11.4377
   381.62         10.9439
   381.76         10.4641
   381.90         10.0174
   382.04         9.6168
   382.18         9.2715
   382.32         8.9895
   382.46         8.7753
   382.60         8.6251
   382.74         8.5288
   382.88         8.4766
   383.02         8.4647
   383.16         8.4927
   383.30         8.5603
   383.44         8.6650
   383.58         8.8018
   383.72         8.9618
   383.86         9.1328
   384.00         9.3036
   384.14         9.4658
   384.28         9.6117
   384.42         9.7305
   384.56         9.8099
   384.70         9.8393
   384.84         9.8158
   384.98         9.7462
   385.12         9.6448
   385.26         9.5283
   385.40         9.4134
   385.54         9.3151
   385.68         9.2410
   385.82         9.1895
   385.96         9.1535
   386.10         9.1279
   386.24         9.1131
   386.38         9.1133
   386.52         9.1313
   386.66         9.1651
   386.80         9.2085
   386.94         9.2554
   387.08         9.3058
   387.22         9.3668
   387.36         9.4504
   387.50         9.5703
   387.64         9.7382
   387.78         9.9617
   387.92         10.2446
   388.06         10.5869
   388.20         10.9852
   388.34         11.4336
   388.48         11.9256
   388.62         12.4537
   388.76         13.0068
   388.90         13.5662
   389.04         14.1056
   389.18         14.5952
   389.32         15.0107
   389.46         15.3398
   389.60         15.5834
   389.74         15.7524
   389.88         15.8631
   390.02         15.9338
   390.16         15.9832
   390.30         16.0284
   390.44         16.0814
   390.58         16.1460
   390.72         16.2146
   390.86         16.2708
   391.00         16.2973
   391.14         16.2798
   391.28         16.2037
   391.42         16.0522
   391.56         15.8057
   391.70         15.4450
   391.84         14.9555
   391.98         14.3313
   392.12         13.5786
   392.26         12.7164
   392.40         11.7777
   392.54         10.8083
   392.68         9.8631
   392.82         8.9993
   392.96         8.2704
   393.10         7.7224
   393.24         7.3914
   393.38         7.3016
   393.52         7.4642
   393.66         7.8746
   393.80         8.5085
   393.94         9.3208
   394.08         10.2523
   394.22         11.2406
   394.36         12.2274
   394.50         13.1634
   394.64         14.0102
   394.78         14.7381
   394.92         15.3207
   395.06         15.7340
   395.20         15.9563
   395.34         15.9676
   395.48         15.7522
   395.62         15.3068
   395.76         14.6489
   395.90         13.8191
   396.04         12.8796
   396.18         11.9081
   396.32         10.9899
   396.46         10.2122
   396.60         9.6565
   396.74         9.3895
   396.88         9.4517
   397.02         9.8500
   397.16         10.5583
   397.30         11.5233
   397.44         12.6721
   397.58         13.9231
   397.72         15.1978
   397.86         16.4267
   398.00         17.5541
   398.14         18.5423
   398.28         19.3731
   398.42         20.0460
   398.56         20.5747
   398.70         20.9842
   398.84         21.3054
   398.98         21.5675
   399.12         21.7920
   399.26         21.9891
   399.40         22.1592
   399.54         22.3001
   399.68         22.4149
   399.82         22.5143
   399.96         22.6115
   400.10         22.7179
   400.24         22.8403
   400.38         22.9799
   400.52         23.1324
   400.66         23.2903
   400.80         23.4456
   400.94         23.5913
   401.08         23.7232
   401.22         23.8408
   401.36         23.9472
   401.50         24.0450
   401.64         24.1323
   401.78         24.2017
   401.92         24.2440
   402.06         24.2554
   402.20         24.2389
   402.34         24.2046
   402.48         24.1655
   402.62         24.1331
   402.76         24.1159
   402.90         24.1175
   403.04         24.1349
   403.18         24.1570
   403.32         24.1694
   403.46         24.1634
   403.60         24.1403
   403.74         24.1078
   403.88         24.0745
   404.02         24.0441
   404.16         24.0136
   404.30         23.9749
   404.44         23.9223
   404.58         23.8592
   404.72         23.7976
   404.86         23.7491
   405.00         23.7164
   405.14         23.6909
   405.28         23.6586
   405.42         23.6078
   405.56         23.5345
   405.70         23.4424
   405.84         23.3421
   405.98         23.2518
   406.12         23.1909
   406.26         23.1683
   406.40         23.1755
   406.54         23.1944
   406.68         23.2115
   406.82         23.2250
   406.96         23.2401
   407.10         23.2631
   407.24         23.3000
   407.38         23.3575
   407.52         23.4452
   407.66         23.5749
   407.80         23.7592
   407.94         24.0070
   408.08         24.3177
   408.22         24.6771
   408.36         25.0573
   408.50         25.4213
   408.64         25.7306
   408.78         25.9483
   408.92         26.0459
   409.06         26.0136
   409.20         25.8654
   409.34         25.6335
   409.48         25.3557
   409.62         25.0665
   409.76         24.7969
   409.90         24.5769
   410.04         24.4328
   410.18         24.3816
   410.32         24.4270
   410.46         24.5596
   410.60         24.7590
   410.74         24.9977
   410.88         25.2445
   411.02         25.4696
   411.16         25.6505
   411.30         25.7735
   411.44         25.8325
   411.58         25.8308
   411.72         25.7786
   411.86         25.6857
   412.00         25.5575
   412.14         25.3979
   412.28         25.2144
   412.42         25.0216
   412.56         24.8392
   412.70         24.6878
   412.84         24.5786
   412.98         24.5085
   413.12         24.4638
   413.26         24.4313
   413.40         24.4042
   413.54         24.3792
   413.68         24.3531
   413.82         24.3212
   413.96         24.2779
   414.10         24.2177
   414.24         24.1375
   414.38         24.0378
   414.52         23.9259
   414.66         23.8168
   414.80         23.7305
   414.94         23.6871
   415.08         23.6996
   415.22         23.7705
   415.36         23.8911
   415.50         24.0460
   415.64         24.2192
   415.78         24.3987
   415.92         24.5711
   416.06         24.7162
   416.20         24.8087
   416.34         24.8281
   416.48         24.7642
   416.62         24.6178
   416.76         24.4010
   416.90         24.1353
   417.04         23.8501
   417.18         23.5787
   417.32         23.3508
   417.46         23.1851
   417.60         23.0903
   417.74         23.0664
   417.88         23.1061
   418.02         23.1979
   418.16         23.3273
   418.30         23.4748
   418.44         23.6158
   418.58         23.7268
   418.72         23.7928
   418.86         23.8096
   419.00         23.7812
   419.14         23.7164
   419.28         23.6293
   419.42         23.5399
   419.56         23.4704
   419.70         23.4401
   419.84         23.4604
   419.98         23.5341
   420.12         23.6563
   420.26         23.8161
   420.40         24.0004
   420.54         24.1980
   420.68         24.4021
   420.82         24.6080
   420.96         24.8091
   421.10         24.9939
   421.24         25.1459
   421.38         25.2448
   421.52         25.2734
   421.66         25.2291
   421.80         25.1265
   421.94         24.9902
   422.08         24.8456
   422.22         24.7123
   422.36         24.6011
   422.50         24.5166
   422.64         24.4613
   422.78         24.4395
   422.92         24.4575
   423.06         24.5230
   423.20         24.6401
   423.34         24.8019
   423.48         24.9865
   423.62         25.1605
   423.76         25.2914
   423.90         25.3614
   424.04         25.3724
   424.18         25.3408
   424.32         25.2877
   424.46         25.2284
   424.60         25.1672
   424.74         25.0994
   424.88         25.0194
   425.02         24.9298
   425.16         24.8455
   425.30         24.7887
   425.44         24.7775
   425.58         24.8177
   425.72         24.8999
   425.86         25.0010
   426.00         25.0904
   426.14         25.1393
   426.28         25.1307
   426.42         25.0664
   426.56         24.9610
   426.70         24.8305
   426.84         24.6882
   426.98         24.5475
   427.12         24.4231
   427.26         24.3251
   427.40         24.2575
   427.54         24.2212
   427.68         24.2123
   427.82         24.2174
   427.96         24.2174
   428.10         24.1934
   428.24         24.1319
   428.38         24.0225
   428.52         23.8582
   428.66         23.6354
   428.80         23.3541
   428.94         23.0164
   429.08         22.6254
   429.22         22.1810
   429.36         21.6821
   429.50         21.1310
   429.64         20.5351
   429.78         19.9072
   429.92         19.2674
   430.06         18.6492
   430.20         18.1022
   430.34         17.6911
   430.48         17.4885
   430.62         17.5590
   430.76         17.9374
   430.90         18.6157
   431.04         19.5439
   431.18         20.6398
   431.32         21.8056
   431.46         22.9492
   431.60         23.9995
   431.74         24.9092
   431.88         25.6510
   432.02         26.2182
   432.16         26.6252
   432.30         26.9042
   432.44         27.0968
   432.58         27.2406
   432.72         27.3606
   432.86         27.4704
   433.00         27.5751
   433.14         27.6701
   433.28         27.7414
   433.42         27.7705
   433.56         27.7468
   433.70         27.6732
   433.84         27.5639
   433.98         27.4418
   434.12         27.3360
   434.26         27.2740
   434.40         27.2695
   434.54         27.3206
   434.68         27.4154
   434.82         27.5368
   434.96         27.6651
   435.10         27.7832
   435.24         27.8815
   435.38         27.9642
   435.52         28.0451
   435.66         28.1391
   435.80         28.2539
   435.94         28.3847
   436.08         28.5145
   436.22         28.6175
   436.36         28.6670
   436.50         28.6447
   436.64         28.5472
   436.78         28.3872
   436.92         28.1809
   437.06         27.9351
   437.20         27.6498
   437.34         27.3290
   437.48         26.9864
   437.62         26.6406
   437.76         26.3082
   437.90         26.0028
   438.04         25.7369
   438.18         25.5231
   438.32         25.3755
   438.46         25.3088
   438.60         25.3335
   438.74         25.4499
   438.88         25.6496
   439.02         25.9200
   439.16         26.2411
   439.30         26.5821
   439.44         26.9060
   439.58         27.1795
   439.72         27.3845
   439.86         27.5283
   440.00         27.6372
   440.14         27.7383
   440.28         27.8458
   440.42         27.9661
   440.56         28.1078
   440.70         28.2821
   440.84         28.4961
   440.98         28.7471
   441.12         29.0245
   441.26         29.3111
   441.40         29.5867
   441.54         29.8357
   441.68         30.0470
   441.82         30.2121
   441.96         30.3280
   442.10         30.3984
   442.24         30.4311
   442.38         30.4361
   442.52         30.4252
   442.66         30.4092
   442.80         30.3942
   442.94         30.3829
   443.08         30.3805
   443.22         30.3953
   443.36         30.4351
   443.50         30.5022
   443.64         30.5951
   443.78         30.7124
   443.92         30.8510
   444.06         31.0013
   444.20         31.1467
   444.34         31.2663
   444.48         31.3412
   444.62         31.3568
   444.76         31.3040
   444.90         31.1820
   445.04         31.0014
   445.18         30.7823
   445.32         30.5472
   445.46         30.3161
   445.60         30.1074
   445.74         29.9420
   445.88         29.8433
   446.02         29.8318
   446.16         29.9195
   446.30         30.1097
   446.44         30.3967
   446.58         30.7641
   446.72         31.1827
   446.86         31.6165
   447.00         32.0339
   447.14         32.4138
   447.28         32.7444
   447.42         33.0187
   447.56         33.2318
   447.70         33.3807
   447.84         33.4652
   447.98         33.4878
   448.12         33.4522
   448.26         33.3650
   448.40         33.2411
   448.54         33.1040
   448.68         32.9783
   448.82         32.8833
   448.96         32.8311
   449.10         32.8297
   449.24         32.8828
   449.38         32.9921
   449.52         33.1601
   449.66         33.3901
   449.80         33.6793
   449.94         34.0114
   450.08         34.3573
   450.22         34.6847
   450.36         34.9669
   450.50         35.1843
   450.64         35.3239
   450.78         35.3807
   450.92         35.3575
   451.06         35.2632
   451.20         35.1068
   451.34         34.8942
   451.48         34.6287
   451.62         34.3159
   451.76         33.9654
   451.90         33.5890
   452.04         33.1989
   452.18         32.8087
   452.32         32.4368
   452.46         32.1067
   452.60         31.8402
   452.74         31.6542
   452.88         31.5612
   453.02         31.5674
   453.16         31.6683
   453.30         31.8496
   453.44         32.0864
   453.58         32.3449
   453.72         32.5910
   453.86         32.7982
   454.00         32.9483
   454.14         33.0331
   454.28         33.0585
   454.42         33.0426
   454.56         33.0099
   454.70         32.9859
   454.84         32.9930
   454.98         33.0452
   455.12         33.1434
   455.26         33.2761
   455.40         33.4284
   455.54         33.5885
   455.68         33.7460
   455.82         33.8904
   455.96         34.0157
   456.10         34.1220
   456.24         34.2135
   456.38         34.2966
   456.52         34.3746
   456.66         34.4450
   456.80         34.5027
   456.94         34.5434
   457.08         34.5612
   457.22         34.5496
   457.36         34.5054
