# File HD256413
# Wavelength [nm]    Normalized Amplitude
   349.70         134.6211
   349.84         135.1741
   349.98         135.7861
   350.12         136.3961
   350.26         136.9320
   350.40         137.3471
   350.54         137.6365
   350.68         137.8202
   350.82         137.9269
   350.96         137.9812
   351.10         137.9977
   351.24         137.9812
   351.38         137.9269
   351.52         137.8202
   351.66         137.6365
   351.80         137.3471
   351.94         136.9320
   352.08         136.3961
   352.22         135.7861
   352.36         135.1741
   352.50         134.6211
   352.64         134.1738
   352.78         133.8685
   352.92         133.7295
   353.06         133.7646
   353.20         133.9541
   353.34         134.2575
   353.48         134.6287
   353.62         135.0316
   353.76         135.4488
   353.90         135.8763
   354.04         136.3216
   354.18         136.7944
   354.32         137.2778
   354.46         137.7242
   354.60         138.0765
   354.74         138.2764
   354.88         138.2674
   355.02         138.0000
   355.16         137.4505
   355.30         136.6393
   355.44         135.6240
   355.58         134.4809
   355.72         133.2915
   355.86         132.1432
   356.00         131.1285
   356.14         130.3232
   356.28         129.7682
   356.42         129.4649
   356.56         129.3747
   356.70         129.4231
   356.84         129.5099
   356.98         129.5252
   357.12         129.3900
   357.26         129.0835
   357.40         128.6286
   357.54         128.0781
   357.68         127.5078
   357.82         126.9991
   357.96         126.6182
   358.10         126.4030
   358.24         126.3575
   358.38         126.4589
   358.52         126.6824
   358.66         127.0046
   358.80         127.3957
   358.94         127.8378
   359.08         128.3209
   359.22         128.8150
   359.36         129.2697
   359.50         129.6508
   359.64         129.9635
   359.78         130.2333
   359.92         130.4729
   360.06         130.6701
   360.20         130.8008
   360.34         130.8359
   360.48         130.7337
   360.62         130.4539
   360.76         129.9905
   360.90         129.3814
   361.04         128.6970
   361.18         128.0193
   361.32         127.4180
   361.46         126.9422
   361.60         126.6032
   361.74         126.3611
   361.88         126.1583
   362.02         125.9514
   362.16         125.7180
   362.30         125.4503
   362.44         125.1486
   362.58         124.8259
   362.72         124.5019
   362.86         124.1961
   363.00         123.9267
   363.14         123.7106
   363.28         123.5733
   363.42         123.5419
   363.56         123.6236
   363.70         123.7899
   363.84         123.9907
   363.98         124.1858
   364.12         124.3487
   364.26         124.4582
   364.40         124.5074
   364.54         124.5106
   364.68         124.4822
   364.82         124.4294
   364.96         124.3677
   365.10         124.3237
   365.24         124.3192
   365.38         124.3577
   365.52         124.4291
   365.66         124.5141
   365.80         124.5884
   365.94         124.6340
   366.08         124.6466
   366.22         124.6337
   366.36         124.6032
   366.50         124.5717
   366.64         124.5606
   366.78         124.5751
   366.92         124.6095
   367.06         124.6595
   367.20         124.7280
   367.34         124.8103
   367.48         124.8887
   367.62         124.9479
   367.76         124.9777
   367.90         124.9666
   368.04         124.8964
   368.18         124.7474
   368.32         124.5148
   368.46         124.2132
   368.60         123.8631
   368.74         123.4906
   368.88         123.1296
   369.02         122.8207
   369.16         122.6043
   369.30         122.4981
   369.44         122.5041
   369.58         122.6172
   369.72         122.8122
   369.86         123.0529
   370.00         123.2932
   370.14         123.4865
   370.28         123.6128
   370.42         123.6833
   370.56         123.7297
   370.70         123.7931
   370.84         123.9075
   370.98         124.0829
   371.12         124.2947
   371.26         124.5036
   371.40         124.6969
   371.54         124.8982
   371.68         125.1483
   371.82         125.4776
   371.96         125.8907
   372.10         126.3746
   372.24         126.8879
   372.38         127.3569
   372.52         127.7112
   372.66         127.9234
   372.80         128.0305
   372.94         128.1210
   373.08         128.3029
   373.22         128.6795
   373.36         129.3242
   373.50         130.2513
   373.64         131.4123
   373.78         132.7189
   373.92         134.0581
   374.06         135.2904
   374.20         136.2556
   374.34         136.8126
   374.48         136.8833
   374.62         136.4681
   374.76         135.6450
   374.90         134.5669
   375.04         133.4509
   375.18         132.5457
   375.32         132.0769
   375.46         132.1743
   375.60         132.8298
   375.74         133.9136
   375.88         135.2030
   376.02         136.4131
   376.16         137.2569
   376.30         137.5322
   376.44         137.1817
   376.58         136.3033
   376.72         135.1260
   376.86         133.9572
   377.00         133.1219
   377.14         132.8816
   377.28         133.3682
   377.42         134.5791
   377.56         136.4254
   377.70         138.7713
   377.84         141.4321
   377.98         144.1764
   378.12         146.7389
   378.26         148.8542
   378.40         150.2908
   378.54         150.8636
   378.68         150.4680
   378.82         149.1204
   378.96         146.9672
   379.10         144.2560
   379.24         141.2878
   379.38         138.3545
   379.52         135.7130
   379.66         133.5966
   379.80         132.2025
   379.94         131.6727
   380.08         132.0860
   380.22         133.4578
   380.36         135.7081
   380.50         138.6259
   380.64         141.8987
   380.78         145.1778
   380.92         148.1551
   381.06         150.6050
   381.20         152.4042
   381.34         153.5482
   381.48         154.1231
   381.62         154.2577
   381.76         154.0830
   381.90         153.6884
   382.04         153.0956
   382.18         152.2790
   382.32         151.1853
   382.46         149.7386
   382.60         147.8800
   382.74         145.6198
   382.88         143.0503
   383.02         140.3224
   383.16         137.6291
   383.30         135.1977
   383.44         133.2628
   383.58         132.0202
   383.72         131.5888
   383.86         132.0027
   384.00         133.2221
   384.14         135.1364
   384.28         137.5741
   384.42         140.3275
   384.56         143.1745
   384.70         145.9037
   384.84         148.3539
   384.98         150.4361
   385.12         152.1382
   385.26         153.5074
   385.40         154.6071
   385.54         155.4742
   385.68         156.1074
   385.82         156.4812
   385.96         156.5686
   386.10         156.3663
   386.24         155.9119
   386.38         155.2801
   386.52         154.5580
   386.66         153.8214
   386.80         153.1226
   386.94         152.4857
   387.08         151.8975
   387.22         151.2855
   387.36         150.5197
   387.50         149.4403
   387.64         147.8895
   387.78         145.7438
   387.92         142.9486
   388.06         139.5556
   388.20         135.7331
   388.34         131.7402
   388.48         127.8922
   388.62         124.5221
   388.76         121.9396
   388.90         120.3849
   389.04         119.9936
   389.18         120.7911
   389.32         122.7001
   389.46         125.5455
   389.60         129.0672
   389.74         132.9480
   389.88         136.8607
   390.02         140.5243
   390.16         143.7266
   390.30         146.3329
   390.44         148.2929
   390.58         149.6297
   390.72         150.4111
   390.86         150.7118
   391.00         150.5994
   391.14         150.1467
   391.28         149.4374
   391.42         148.5562
   391.56         147.5717
   391.70         146.5357
   391.84         145.4981
   391.98         144.4981
   392.12         143.5490
   392.26         142.6525
   392.40         141.8132
   392.54         141.0398
   392.68         140.3452
   392.82         139.7326
   392.96         139.1927
   393.10         138.7193
   393.24         138.3201
   393.38         138.0066
   393.52         137.7756
   393.66         137.6131
   393.80         137.5078
   393.94         137.4482
   394.08         137.4163
   394.22         137.3905
   394.36         137.3557
   394.50         137.3009
   394.64         137.2160
   394.78         137.0991
   394.92         136.9569
   395.06         136.7830
   395.20         136.5370
   395.34         136.1416
   395.48         135.4903
   395.62         134.4671
   395.76         132.9713
   395.90         130.9329
   396.04         128.3317
   396.18         125.2335
   396.32         121.8152
   396.46         118.3438
   396.60         115.1147
   396.74         112.4041
   396.88         110.4475
   397.02         109.4189
   397.16         109.4096
   397.30         110.4249
   397.44         112.3786
   397.58         115.0896
   397.72         118.3017
   397.86         121.7237
   398.00         125.0730
   398.14         128.1116
   398.28         130.6756
   398.42         132.6864
   398.56         134.1381
   398.70         135.0877
   398.84         135.6383
   398.98         135.9035
   399.12         135.9745
   399.26         135.9126
   399.40         135.7627
   399.54         135.5587
   399.68         135.3230
   399.82         135.0642
   399.96         134.7827
   400.10         134.4753
   400.24         134.1326
   400.38         133.7461
   400.52         133.3184
   400.66         132.8652
   400.80         132.4136
   400.94         131.9908
   401.08         131.6012
   401.22         131.2198
   401.36         130.8074
   401.50         130.3191
   401.64         129.7153
   401.78         128.9829
   401.92         128.1469
   402.06         127.2627
   402.20         126.3907
   402.34         125.5887
   402.48         124.9131
   402.62         124.4151
   402.76         124.1299
   402.90         124.0731
   403.04         124.2468
   403.18         124.6349
   403.32         125.1987
   403.46         125.8831
   403.60         126.6195
   403.74         127.3337
   403.88         127.9660
   404.02         128.4842
   404.16         128.8843
   404.30         129.1871
   404.44         129.4211
   404.58         129.6007
   404.72         129.7220
   404.86         129.7780
   405.00         129.7762
   405.14         129.7334
   405.28         129.6643
   405.42         129.5855
   405.56         129.5204
   405.70         129.4846
   405.84         129.4721
   405.98         129.4648
   406.12         129.4406
   406.26         129.3698
   406.40         129.2227
   406.54         128.9787
   406.68         128.6284
   406.82         128.1828
   406.96         127.6715
   407.10         127.1315
   407.24         126.5992
   407.38         126.1093
   407.52         125.6931
   407.66         125.3674
   407.80         125.1315
   407.94         124.9780
   408.08         124.8922
   408.22         124.8404
   408.36         124.7619
   408.50         124.5726
   408.64         124.1746
   408.78         123.4665
   408.92         122.3548
   409.06         120.7697
   409.20         118.6924
   409.34         116.1771
   409.48         113.3509
   409.62         110.3940
   409.76         107.5185
   409.90         104.9471
   410.04         102.8892
   410.18         101.5147
   410.32         100.9319
   410.46         101.1742
   410.60         102.1943
   410.74         103.8709
   410.88         106.0298
   411.02         108.4677
   411.16         110.9720
   411.30         113.3466
   411.44         115.4439
   411.58         117.1817
   411.72         118.5458
   411.86         119.5781
   412.00         120.3442
   412.14         120.9110
   412.28         121.3368
   412.42         121.6596
   412.56         121.8978
   412.70         122.0473
   412.84         122.0853
   412.98         121.9831
   413.12         121.7151
   413.26         121.2706
   413.40         120.6651
   413.54         119.9382
   413.68         119.1412
   413.82         118.3284
   413.96         117.5548
   414.10         116.8741
   414.24         116.3342
   414.38         115.9713
   414.52         115.8017
   414.66         115.8191
   414.80         116.0020
   414.94         116.3109
   415.08         116.6918
   415.22         117.0871
   415.36         117.4421
   415.50         117.7144
   415.64         117.8770
   415.78         117.9208
   415.92         117.8611
   416.06         117.7278
   416.20         117.5571
   416.34         117.3850
   416.48         117.2356
   416.62         117.1177
   416.76         117.0360
   416.90         116.9941
   417.04         116.9863
   417.18         116.9951
   417.32         117.0040
   417.46         117.0055
   417.60         116.9903
   417.74         116.9444
   417.88         116.8549
   418.02         116.7105
   418.16         116.5066
   418.30         116.2511
   418.44         115.9640
   418.58         115.6635
   418.72         115.3563
   418.86         115.0463
   419.00         114.7421
   419.14         114.4523
   419.28         114.1865
   419.42         113.9538
   419.56         113.7558
   419.70         113.5876
   419.84         113.4474
   419.98         113.3406
   420.12         113.2663
   420.26         113.2126
   420.40         113.1709
   420.54         113.1429
   420.68         113.1338
   420.82         113.1497
   420.96         113.1917
   421.10         113.2499
   421.24         113.3075
   421.38         113.3476
   421.52         113.3565
   421.66         113.3208
   421.80         113.2281
   421.94         113.0781
   422.08         112.8835
   422.22         112.6642
   422.36         112.4456
   422.50         112.2526
   422.64         112.1051
   422.78         112.0124
   422.92         111.9775
   423.06         111.9979
   423.20         112.0637
   423.34         112.1613
   423.48         112.2751
   423.62         112.3848
   423.76         112.4673
   423.90         112.5043
   424.04         112.4800
   424.18         112.3827
   424.32         112.2098
   424.46         111.9704
   424.60         111.6820
   424.74         111.3586
   424.88         111.0151
   425.02         110.6725
   425.16         110.3512
   425.30         110.0629
   425.44         109.8073
   425.58         109.5764
   425.72         109.3589
   425.86         109.1495
   426.00         108.9534
   426.14         108.7783
   426.28         108.6310
   426.42         108.5217
   426.56         108.4630
   426.70         108.4622
   426.84         108.5241
   426.98         108.6565
   427.12         108.8688
   427.26         109.1635
   427.40         109.5305
   427.54         109.9437
   427.68         110.3639
   427.82         110.7521
   427.96         111.0807
   428.10         111.3358
   428.24         111.5159
   428.38         111.6303
   428.52         111.6963
   428.66         111.7286
   428.80         111.7300
   428.94         111.6910
   429.08         111.5936
   429.22         111.4213
   429.36         111.1705
   429.50         110.8519
   429.64         110.4798
   429.78         110.0611
   429.92         109.5991
   430.06         109.1021
   430.20         108.5866
   430.34         108.0746
   430.48         107.5857
   430.62         107.1297
   430.76         106.7072
   430.90         106.3144
   431.04         105.9481
   431.18         105.6053
   431.32         105.2812
   431.46         104.9741
   431.60         104.6890
   431.74         104.4340
   431.88         104.2131
   432.02         104.0157
   432.16         103.8138
   432.30         103.5660
   432.44         103.2190
   432.58         102.7104
   432.72         101.9708
   432.86         100.9288
   433.00         99.5299
   433.14         97.7639
   433.28         95.6851
   433.42         93.4095
   433.56         91.0957
   433.70         88.9230
   433.84         87.0690
   433.98         85.6908
   434.12         84.9099
   434.26         84.7947
   434.40         85.3480
   434.54         86.5094
   434.68         88.1650
   434.82         90.1629
   434.96         92.3271
   435.10         94.4753
   435.24         96.4427
   435.38         98.1070
   435.52         99.4041
   435.66         100.3293
   435.80         100.9225
   435.94         101.2493
   436.08         101.3811
   436.22         101.3826
   436.36         101.3089
   436.50         101.2053
   436.64         101.1077
   436.78         101.0405
   436.92         101.0154
   437.06         101.0333
   437.20         101.0845
   437.34         101.1493
   437.48         101.2018
   437.62         101.2073
   437.76         101.1273
   437.90         100.9337
   438.04         100.6194
   438.18         100.1994
   438.32         99.7088
   438.46         99.1986
   438.60         98.7247
   438.74         98.3352
   438.88         98.0670
   439.02         97.9436
   439.16         97.9721
   439.30         98.1411
   439.44         98.4234
   439.58         98.7838
   439.72         99.1819
   439.86         99.5763
   440.00         99.9313
   440.14         100.2151
   440.28         100.4032
   440.42         100.4931
   440.56         100.5020
   440.70         100.4502
   440.84         100.3525
   440.98         100.2160
   441.12         100.0365
   441.26         99.8004
   441.40         99.4946
   441.54         99.1154
   441.68         98.6673
   441.82         98.1589
   441.96         97.6023
   442.10         97.0167
   442.24         96.4289
   442.38         95.8678
   442.52         95.3554
   442.66         94.9010
   442.80         94.5072
   442.94         94.1797
   443.08         93.9237
   443.22         93.7347
   443.36         93.5993
   443.50         93.5050
   443.64         93.4457
   443.78         93.4226
   443.92         93.4423
   444.06         93.5113
   444.20         93.6267
   444.34         93.7763
   444.48         93.9421
   444.62         94.1068
   444.76         94.2606
   444.90         94.4008
   445.04         94.5256
   445.18         94.6307
   445.32         94.7074
   445.46         94.7449
   445.60         94.7289
   445.74         94.6385
   445.88         94.4476
   446.02         94.1328
   446.16         93.6875
   446.30         93.1298
   446.44         92.4979
   446.58         91.8374
   446.72         91.1889
   446.86         90.5878
   447.00         90.0690
   447.14         89.6652
   447.28         89.4078
   447.42         89.3253
   447.56         89.4281
   447.70         89.6982
   447.84         90.0896
   447.98         90.5434
   448.12         91.0100
   448.26         91.4570
   448.40         91.8640
   448.54         92.2239
   448.68         92.5478
   448.82         92.8609
   448.96         93.1881
   449.10         93.5407
   449.24         93.9067
   449.38         94.2586
   449.52         94.5676
   449.66         94.8092
   449.80         94.9619
   449.94         95.0123
   450.08         94.9563
   450.22         94.7933
   450.36         94.5281
   450.50         94.1844
   450.64         93.8092
   450.78         93.4583
   450.92         93.1808
   451.06         93.0098
   451.20         92.9620
   451.34         93.0401
   451.48         93.2290
   451.62         93.4937
   451.76         93.7840
   451.90         94.0440
   452.04         94.2237
   452.18         94.2868
   452.32         94.2180
   452.46         94.0256
   452.60         93.7375
   452.74         93.3913
   452.88         93.0250
   453.02         92.6754
   453.16         92.3746
   453.30         92.1403
   453.44         91.9735
   453.58         91.8632
