# File HD250368
# Wavelength [nm]    Normalized Amplitude
   349.70         1.3176
   349.84         1.3248
   349.98         1.3372
   350.12         1.3513
   350.26         1.3636
   350.40         1.3724
   350.54         1.3776
   350.68         1.3806
   350.82         1.3828
   350.96         1.3848
   351.10         1.3855
   351.24         1.3848
   351.38         1.3828
   351.52         1.3806
   351.66         1.3776
   351.80         1.3724
   351.94         1.3636
   352.08         1.3513
   352.22         1.3372
   352.36         1.3248
   352.50         1.3176
   352.64         1.3178
   352.78         1.3269
   352.92         1.3471
   353.06         1.3781
   353.20         1.4172
   353.34         1.4605
   353.48         1.5034
   353.62         1.5402
   353.76         1.5665
   353.90         1.5801
   354.04         1.5811
   354.18         1.5706
   354.32         1.5493
   354.46         1.5187
   354.60         1.4830
   354.74         1.4476
   354.88         1.4170
   355.02         1.3928
   355.16         1.3741
   355.30         1.3592
   355.44         1.3459
   355.58         1.3305
   355.72         1.3096
   355.86         1.2815
   356.00         1.2471
   356.14         1.2091
   356.28         1.1706
   356.42         1.1346
   356.56         1.1035
   356.70         1.0791
   356.84         1.0617
   356.98         1.0506
   357.12         1.0441
   357.26         1.0395
   357.40         1.0333
   357.54         1.0219
   357.68         1.0034
   357.82         0.9784
   357.96         0.9497
   358.10         0.9224
   358.24         0.9035
   358.38         0.8999
   358.52         0.9172
   358.66         0.9584
   358.80         1.0227
   358.94         1.1063
   359.08         1.2023
   359.22         1.3037
   359.36         1.4033
   359.50         1.4937
   359.64         1.5678
   359.78         1.6207
   359.92         1.6510
   360.06         1.6605
   360.20         1.6539
   360.34         1.6378
   360.48         1.6193
   360.62         1.6030
   360.76         1.5913
   360.90         1.5851
   361.04         1.5848
   361.18         1.5902
   361.32         1.6008
   361.46         1.6160
   361.60         1.6360
   361.74         1.6606
   361.88         1.6889
   362.02         1.7185
   362.16         1.7462
   362.30         1.7698
   362.44         1.7884
   362.58         1.8030
   362.72         1.8150
   362.86         1.8255
   363.00         1.8352
   363.14         1.8431
   363.28         1.8478
   363.42         1.8487
   363.56         1.8457
   363.70         1.8383
   363.84         1.8270
   363.98         1.8142
   364.12         1.8030
   364.26         1.7961
   364.40         1.7952
   364.54         1.8021
   364.68         1.8197
   364.82         1.8506
   364.96         1.8963
   365.10         1.9557
   365.24         2.0247
   365.38         2.0977
   365.52         2.1678
   365.66         2.2274
   365.80         2.2702
   365.94         2.2930
   366.08         2.2957
   366.22         2.2810
   366.36         2.2539
   366.50         2.2213
   366.64         2.1886
   366.78         2.1594
   366.92         2.1361
   367.06         2.1205
   367.20         2.1137
   367.34         2.1156
   367.48         2.1236
   367.62         2.1334
   367.76         2.1412
   367.90         2.1463
   368.04         2.1500
   368.18         2.1537
   368.32         2.1578
   368.46         2.1633
   368.60         2.1716
   368.74         2.1840
   368.88         2.2014
   369.02         2.2234
   369.16         2.2482
   369.30         2.2719
   369.44         2.2898
   369.58         2.2976
   369.72         2.2923
   369.86         2.2727
   370.00         2.2402
   370.14         2.1995
   370.28         2.1585
   370.42         2.1251
   370.56         2.1042
   370.70         2.0961
   370.84         2.0973
   370.98         2.1031
   371.12         2.1098
   371.26         2.1144
   371.40         2.1143
   371.54         2.1063
   371.68         2.0881
   371.82         2.0587
   371.96         2.0188
   372.10         1.9706
   372.24         1.9169
   372.38         1.8607
   372.52         1.8045
   372.66         1.7515
   372.80         1.7047
   372.94         1.6652
   373.08         1.6322
   373.22         1.6034
   373.36         1.5778
   373.50         1.5558
   373.64         1.5383
   373.78         1.5262
   373.92         1.5202
   374.06         1.5218
   374.20         1.5325
   374.34         1.5529
   374.48         1.5809
   374.62         1.6129
   374.76         1.6449
   374.90         1.6745
   375.04         1.7012
   375.18         1.7255
   375.32         1.7480
   375.46         1.7682
   375.60         1.7848
   375.74         1.7970
   375.88         1.8050
   376.02         1.8110
   376.16         1.8181
   376.30         1.8295
   376.44         1.8494
   376.58         1.8813
   376.72         1.9263
   376.86         1.9824
   377.00         2.0455
   377.14         2.1107
   377.28         2.1737
   377.42         2.2308
   377.56         2.2786
   377.70         2.3131
   377.84         2.3316
   377.98         2.3324
   378.12         2.3153
   378.26         2.2809
   378.40         2.2305
   378.54         2.1664
   378.68         2.0914
   378.82         2.0097
   378.96         1.9272
   379.10         1.8508
   379.24         1.7865
   379.38         1.7387
   379.52         1.7102
   379.66         1.7014
   379.80         1.7110
   379.94         1.7357
   380.08         1.7701
   380.22         1.8078
   380.36         1.8418
   380.50         1.8662
   380.64         1.8754
   380.78         1.8653
   380.92         1.8343
   381.06         1.7835
   381.20         1.7163
   381.34         1.6374
   381.48         1.5517
   381.62         1.4647
   381.76         1.3815
   381.90         1.3055
   382.04         1.2386
   382.18         1.1818
   382.32         1.1358
   382.46         1.1008
   382.60         1.0754
   382.74         1.0572
   382.88         1.0437
   383.02         1.0336
   383.16         1.0266
   383.30         1.0238
   383.44         1.0261
   383.58         1.0339
   383.72         1.0472
   383.86         1.0648
   384.00         1.0852
   384.14         1.1074
   384.28         1.1302
   384.42         1.1525
   384.56         1.1724
   384.70         1.1883
   384.84         1.1989
   384.98         1.2037
   385.12         1.2034
   385.26         1.1983
   385.40         1.1892
   385.54         1.1777
   385.68         1.1656
   385.82         1.1543
   385.96         1.1441
   386.10         1.1350
   386.24         1.1272
   386.38         1.1216
   386.52         1.1186
   386.66         1.1187
   386.80         1.1219
   386.94         1.1285
   387.08         1.1389
   387.22         1.1542
   387.36         1.1756
   387.50         1.2047
   387.64         1.2433
   387.78         1.2922
   387.92         1.3519
   388.06         1.4230
   388.20         1.5050
   388.34         1.5967
   388.48         1.6966
   388.62         1.8034
   388.76         1.9151
   388.90         2.0287
   389.04         2.1393
   389.18         2.2420
   389.32         2.3319
   389.46         2.4052
   389.60         2.4591
   389.74         2.4934
   389.88         2.5101
   390.02         2.5127
   390.16         2.5059
   390.30         2.4950
   390.44         2.4846
   390.58         2.4778
   390.72         2.4750
   390.86         2.4743
   391.00         2.4725
   391.14         2.4666
   391.28         2.4532
   391.42         2.4292
   391.56         2.3912
   391.70         2.3365
   391.84         2.2631
   391.98         2.1701
   392.12         2.0580
   392.26         1.9297
   392.40         1.7905
   392.54         1.6471
   392.68         1.5071
   392.82         1.3781
   392.96         1.2670
   393.10         1.1796
   393.24         1.1202
   393.38         1.0919
   393.52         1.0967
   393.66         1.1356
   393.80         1.2079
   393.94         1.3109
   394.08         1.4387
   394.22         1.5833
   394.36         1.7359
   394.50         1.8878
   394.64         2.0316
   394.78         2.1616
   394.92         2.2739
   395.06         2.3645
   395.20         2.4287
   395.34         2.4616
   395.48         2.4592
   395.62         2.4190
   395.76         2.3417
   395.90         2.2312
   396.04         2.0952
   396.18         1.9450
   396.32         1.7943
   396.46         1.6571
   396.60         1.5473
   396.74         1.4764
   396.88         1.4530
   397.02         1.4815
   397.16         1.5613
   397.30         1.6873
   397.44         1.8501
   397.58         2.0376
   397.72         2.2368
   397.86         2.4351
   398.00         2.6225
   398.14         2.7917
   398.28         2.9384
   398.42         3.0607
   398.56         3.1593
   398.70         3.2378
   398.84         3.3017
   398.98         3.3570
   399.12         3.4083
   399.26         3.4579
   399.40         3.5055
   399.54         3.5493
   399.68         3.5874
   399.82         3.6188
   399.96         3.6442
   400.10         3.6654
   400.24         3.6850
   400.38         3.7047
   400.52         3.7256
   400.66         3.7489
   400.80         3.7753
   400.94         3.8049
   401.08         3.8370
   401.22         3.8708
   401.36         3.9054
   401.50         3.9397
   401.64         3.9715
   401.78         3.9975
   401.92         4.0141
   402.06         4.0185
   402.20         4.0101
   402.34         3.9911
   402.48         3.9654
   402.62         3.9380
   402.76         3.9141
   402.90         3.8973
   403.04         3.8892
   403.18         3.8887
   403.32         3.8924
   403.46         3.8964
   403.60         3.8974
   403.74         3.8945
   403.88         3.8885
   404.02         3.8802
   404.16         3.8696
   404.30         3.8550
   404.44         3.8341
   404.58         3.8058
   404.72         3.7717
   404.86         3.7357
   405.00         3.7016
   405.14         3.6708
   405.28         3.6430
   405.42         3.6169
   405.56         3.5921
   405.70         3.5693
   405.84         3.5503
   405.98         3.5372
   406.12         3.5329
   406.26         3.5391
   406.40         3.5553
   406.54         3.5778
   406.68         3.6023
   406.82         3.6262
   406.96         3.6489
   407.10         3.6713
   407.24         3.6950
   407.38         3.7224
   407.52         3.7553
   407.66         3.7950
   407.80         3.8424
   407.94         3.8984
   408.08         3.9627
   408.22         4.0334
   408.36         4.1058
   408.50         4.1731
   408.64         4.2287
   408.78         4.2671
   408.92         4.2837
   409.06         4.2763
   409.20         4.2462
   409.34         4.1983
   409.48         4.1393
   409.62         4.0759
   409.76         4.0142
   409.90         3.9592
   410.04         3.9155
   410.18         3.8867
   410.32         3.8749
   410.46         3.8796
   410.60         3.8977
   410.74         3.9247
   410.88         3.9554
   411.02         3.9845
   411.16         4.0075
   411.30         4.0217
   411.44         4.0252
   411.58         4.0183
   411.72         4.0030
   411.86         3.9818
   412.00         3.9563
   412.14         3.9272
   412.28         3.8951
   412.42         3.8610
   412.56         3.8269
   412.70         3.7958
   412.84         3.7702
   412.98         3.7503
   413.12         3.7338
   413.26         3.7180
   413.40         3.7011
   413.54         3.6825
   413.68         3.6616
   413.82         3.6375
   413.96         3.6096
   414.10         3.5778
   414.24         3.5423
   414.38         3.5039
   414.52         3.4637
   414.66         3.4244
   414.80         3.3901
   414.94         3.3656
   415.08         3.3547
   415.22         3.3589
   415.36         3.3774
   415.50         3.4073
   415.64         3.4453
   415.78         3.4884
   415.92         3.5339
   416.06         3.5779
   416.20         3.6153
   416.34         3.6412
   416.48         3.6518
   416.62         3.6456
   416.76         3.6230
   416.90         3.5863
   417.04         3.5401
   417.18         3.4912
   417.32         3.4470
   417.46         3.4139
   417.60         3.3961
   417.74         3.3947
   417.88         3.4091
   418.02         3.4372
   418.16         3.4753
   418.30         3.5184
   418.44         3.5595
   418.58         3.5916
   418.72         3.6096
   418.86         3.6112
   419.00         3.5975
   419.14         3.5721
   419.28         3.5406
   419.42         3.5103
   419.56         3.4884
   419.70         3.4808
   419.84         3.4909
   419.98         3.5189
   420.12         3.5619
   420.26         3.6147
   420.40         3.6719
   420.54         3.7293
   420.68         3.7847
   420.82         3.8379
   420.96         3.8895
   421.10         3.9399
   421.24         3.9879
   421.38         4.0304
   421.52         4.0638
   421.66         4.0866
   421.80         4.0999
   421.94         4.1071
   422.08         4.1112
   422.22         4.1132
   422.36         4.1136
   422.50         4.1125
   422.64         4.1106
   422.78         4.1093
   422.92         4.1109
   423.06         4.1194
   423.20         4.1387
   423.34         4.1709
   423.48         4.2148
   423.62         4.2652
   423.76         4.3146
   423.90         4.3566
   424.04         4.3881
   424.18         4.4101
   424.32         4.4253
   424.46         4.4358
   424.60         4.4420
   424.74         4.4416
   424.88         4.4323
   425.02         4.4141
   425.16         4.3900
   425.30         4.3648
   425.44         4.3438
   425.58         4.3307
   425.72         4.3266
   425.86         4.3290
   426.00         4.3324
   426.14         4.3298
   426.28         4.3154
   426.42         4.2876
   426.56         4.2487
   426.70         4.2041
   426.84         4.1589
   426.98         4.1178
   427.12         4.0844
   427.26         4.0612
   427.40         4.0495
   427.54         4.0502
   427.68         4.0629
   427.82         4.0850
   427.96         4.1108
   428.10         4.1338
   428.24         4.1483
   428.38         4.1503
   428.52         4.1374
   428.66         4.1084
   428.80         4.0641
   428.94         4.0065
   429.08         3.9381
   429.22         3.8609
   429.36         3.7756
   429.50         3.6824
   429.64         3.5817
   429.78         3.4754
   429.92         3.3670
   430.06         3.2619
   430.20         3.1677
   430.34         3.0946
   430.48         3.0547
   430.62         3.0595
   430.76         3.1170
   430.90         3.2284
   431.04         3.3871
   431.18         3.5795
   431.32         3.7876
   431.46         3.9934
   431.60         4.1826
   431.74         4.3456
   431.88         4.4768
   432.02         4.5739
   432.16         4.6387
   432.30         4.6773
   432.44         4.6983
   432.58         4.7105
   432.72         4.7201
   432.86         4.7311
   433.00         4.7456
   433.14         4.7640
   433.28         4.7845
   433.42         4.8038
   433.56         4.8194
   433.70         4.8299
   433.84         4.8362
   433.98         4.8408
   434.12         4.8473
   434.26         4.8597
   434.40         4.8798
   434.54         4.9074
   434.68         4.9405
   434.82         4.9769
   434.96         5.0142
   435.10         5.0503
   435.24         5.0838
   435.38         5.1156
   435.52         5.1484
   435.66         5.1849
   435.80         5.2261
   435.94         5.2704
   436.08         5.3137
   436.22         5.3501
   436.36         5.3733
   436.50         5.3785
   436.64         5.3639
   436.78         5.3315
   436.92         5.2852
   437.06         5.2282
   437.20         5.1619
   437.34         5.0865
   437.48         5.0041
   437.62         4.9185
   437.76         4.8337
   437.90         4.7529
   438.04         4.6786
   438.18         4.6129
   438.32         4.5582
   438.46         4.5180
   438.60         4.4957
   438.74         4.4933
   438.88         4.5102
   439.02         4.5442
   439.16         4.5916
   439.30         4.6462
   439.44         4.7000
   439.58         4.7453
   439.72         4.7771
   439.86         4.7955
   440.00         4.8055
   440.14         4.8143
   440.28         4.8268
   440.42         4.8448
   440.56         4.8696
   440.70         4.9023
   440.84         4.9438
   440.98         4.9936
   441.12         5.0492
   441.26         5.1060
   441.40         5.1585
   441.54         5.2030
   441.68         5.2375
   441.82         5.2617
   441.96         5.2766
   442.10         5.2842
   442.24         5.2870
   442.38         5.2869
   442.52         5.2855
   442.66         5.2839
   442.80         5.2826
   442.94         5.2813
   443.08         5.2803
   443.22         5.2805
   443.36         5.2836
   443.50         5.2911
   443.64         5.3042
   443.78         5.3234
   443.92         5.3490
   444.06         5.3806
   444.20         5.4159
   444.34         5.4506
   444.48         5.4794
   444.62         5.4979
   444.76         5.5023
   444.90         5.4900
   445.04         5.4608
   445.18         5.4179
   445.32         5.3661
   445.46         5.3106
   445.60         5.2565
   445.74         5.2091
   445.88         5.1745
   446.02         5.1578
   446.16         5.1626
   446.30         5.1902
   446.44         5.2402
   446.58         5.3112
   446.72         5.3989
   446.86         5.4961
   447.00         5.5951
   447.14         5.6902
   447.28         5.7785
   447.42         5.8588
   447.56         5.9310
   447.70         5.9945
   447.84         6.0485
   447.98         6.0915
   448.12         6.1223
   448.26         6.1398
   448.40         6.1445
   448.54         6.1385
   448.68         6.1254
   448.82         6.1096
   448.96         6.0952
   449.10         6.0869
   449.24         6.0897
   449.38         6.1065
   449.52         6.1386
   449.66         6.1869
   449.80         6.2512
   449.94         6.3285
   450.08         6.4122
   450.22         6.4928
   450.36         6.5611
   450.50         6.6098
   450.64         6.6351
   450.78         6.6363
   450.92         6.6160
   451.06         6.5786
   451.20         6.5290
   451.34         6.4720
   451.48         6.4107
   451.62         6.3469
   451.76         6.2825
   451.90         6.2184
   452.04         6.1546
   452.18         6.0906
   452.32         6.0269
   452.46         5.9658
   452.60         5.9105
   452.74         5.8639
   452.88         5.8275
   453.02         5.8023
   453.16         5.7891
   453.30         5.7884
   453.44         5.7994
   453.58         5.8198
   453.72         5.8452
   453.86         5.8706
   454.00         5.8912
   454.14         5.9035
   454.28         5.9068
   454.42         5.9037
   454.56         5.8986
   454.70         5.8960
   454.84         5.8993
   454.98         5.9110
   455.12         5.9326
   455.26         5.9628
   455.40         5.9988
   455.54         6.0379
   455.68         6.0794
   455.82         6.1224
   455.96         6.1655
   456.10         6.2068
   456.24         6.2447
   456.38         6.2773
   456.52         6.3034
   456.66         6.3224
   456.80         6.3344
   456.94         6.3404
   457.08         6.3415
   457.22         6.3381
   457.36         6.3299
   457.50         6.3171
   457.64         6.3005
   457.78         6.2820
   457.92         6.2645
   458.06         6.2506
   458.20         6.2422
   458.34         6.2384
   458.48         6.2366
   458.62         6.2349
   458.76         6.2328
   458.90         6.2300
   459.04         6.2263
   459.18         6.2216
   459.32         6.2166
   459.46         6.2131
   459.60         6.2141
   459.74         6.2226
   459.88         6.2413
   460.02         6.2715
   460.16         6.3122
   460.30         6.3608
   460.44         6.4142
   460.58         6.4691
   460.72         6.5222
   460.86         6.5715
   461.00         6.6157
   461.14         6.6552
