# File HD26514
# Wavelength [nm]    Normalized Amplitude
   349.70         22.5023
   349.84         22.4639
   349.98         22.4957
   350.12         22.5763
   350.26         22.6821
   350.40         22.7948
   350.54         22.9067
   350.68         23.0165
   350.82         23.1171
   350.96         23.1903
   351.10         23.2172
   351.24         23.1903
   351.38         23.1171
   351.52         23.0165
   351.66         22.9067
   351.80         22.7948
   351.94         22.6821
   352.08         22.5763
   352.22         22.4957
   352.36         22.4639
   352.50         22.5023
   352.64         22.6253
   352.78         22.8366
   352.92         23.1306
   353.06         23.4959
   353.20         23.9077
   353.34         24.3246
   353.48         24.6993
   353.62         24.9963
   353.76         25.2038
   353.90         25.3275
   354.04         25.3788
   354.18         25.3653
   354.32         25.2906
   354.46         25.1554
   354.60         24.9585
   354.74         24.7010
   354.88         24.3890
   355.02         24.0310
   355.16         23.6336
   355.30         23.1983
   355.44         22.7235
   355.58         22.2093
   355.72         21.6609
   355.86         21.0889
   356.00         20.5130
   356.14         19.9599
   356.28         19.4567
   356.42         19.0250
   356.56         18.6759
   356.70         18.4062
   356.84         18.2015
   356.98         18.0403
   357.12         17.8939
   357.26         17.7299
   357.40         17.5211
   357.54         17.2496
   357.68         16.9114
   357.82         16.5236
   357.96         16.1298
   358.10         15.7945
   358.24         15.5904
   358.38         15.5883
   358.52         15.8474
   358.66         16.4027
   358.80         17.2530
   358.94         18.3570
   359.08         19.6389
   359.22         20.9984
   359.36         22.3280
   359.50         23.5279
   359.64         24.5134
   359.78         25.2238
   359.92         25.6317
   360.06         25.7484
   360.20         25.6191
   360.34         25.3118
   360.48         24.9000
   360.62         24.4447
   360.76         23.9889
   360.90         23.5662
   361.04         23.2124
   361.18         22.9683
   361.32         22.8720
   361.46         22.9515
   361.60         23.2205
   361.74         23.6718
   361.88         24.2700
   362.02         24.9538
   362.16         25.6478
   362.30         26.2804
   362.44         26.8010
   362.58         27.1878
   362.72         27.4441
   362.86         27.5876
   363.00         27.6412
   363.14         27.6274
   363.28         27.5672
   363.42         27.4865
   363.56         27.4145
   363.70         27.3740
   363.84         27.3747
   363.98         27.4148
   364.12         27.4878
   364.26         27.5866
   364.40         27.7061
   364.54         27.8540
   364.68         28.0616
   364.82         28.3740
   364.96         28.8293
   365.10         29.4449
   365.24         30.2127
   365.38         31.0976
   365.52         32.0368
   365.66         32.9474
   365.80         33.7421
   365.94         34.3519
   366.08         34.7451
   366.22         34.9294
   366.36         34.9405
   366.50         34.8273
   366.64         34.6370
   366.78         34.4062
   366.92         34.1564
   367.06         33.8975
   367.20         33.6306
   367.34         33.3476
   367.48         33.0287
   367.62         32.6552
   367.76         32.2283
   367.90         31.7725
   368.04         31.3244
   368.18         30.9188
   368.32         30.5873
   368.46         30.3650
   368.60         30.2907
   368.74         30.3970
   368.88         30.6984
   369.02         31.1828
   369.16         31.8032
   369.30         32.4825
   369.44         33.1314
   369.58         33.6626
   369.72         34.0040
   369.86         34.1141
   370.00         33.9960
   370.14         33.6979
   370.28         33.2999
   370.42         32.8895
   370.56         32.5324
   370.70         32.2517
   370.84         32.0293
   370.98         31.8287
   371.12         31.6181
   371.26         31.3789
   371.40         31.1046
   371.54         30.7911
   371.68         30.4289
   371.82         30.0101
   371.96         29.5390
   372.10         29.0303
   372.24         28.4981
   372.38         27.9544
   372.52         27.4145
   372.66         26.8978
   372.80         26.4206
   372.94         25.9896
   373.08         25.5995
   373.22         25.2329
   373.36         24.8718
   373.50         24.5117
   373.64         24.1653
   373.78         23.8539
   373.92         23.6030
   374.06         23.4410
   374.20         23.3954
   374.34         23.4904
   374.48         23.7341
   374.62         24.1014
   374.76         24.5434
   374.90         25.0189
   375.04         25.5085
   375.18         26.0085
   375.32         26.5136
   375.46         27.0044
   375.60         27.4478
   375.74         27.8086
   375.88         28.0657
   376.02         28.2283
   376.16         28.3356
   376.30         28.4480
   376.44         28.6368
   376.58         28.9704
   376.72         29.4927
   376.86         30.2087
   377.00         31.0841
   377.14         32.0568
   377.28         33.0535
   377.42         34.0029
   377.56         34.8365
   377.70         35.4867
   377.84         35.8965
   377.98         36.0305
   378.12         35.8783
   378.26         35.4533
   378.40         34.7869
   378.54         33.9235
   378.68         32.9178
   378.82         31.8352
   378.96         30.7541
   379.10         29.7660
   379.24         28.9612
   379.38         28.4067
   379.52         28.1346
   379.66         28.1417
   379.80         28.3948
   379.94         28.8367
   380.08         29.3922
   380.22         29.9790
   380.36         30.5180
   380.50         30.9369
   380.64         31.1735
   380.78         31.1777
   380.92         30.9173
   381.06         30.3896
   381.20         29.6234
   381.34         28.6684
   381.48         27.5869
   381.62         26.4488
   381.76         25.3191
   381.90         24.2433
   382.04         23.2449
   382.18         22.3369
   382.32         21.5317
   382.46         20.8403
   382.60         20.2639
   382.74         19.7896
   382.88         19.4001
   383.02         19.0885
   383.16         18.8654
   383.30         18.7509
   383.44         18.7602
   383.58         18.8986
   383.72         19.1612
   383.86         19.5287
   384.00         19.9712
   384.14         20.4586
   384.28         20.9626
   384.42         21.4504
   384.56         21.8846
   384.70         22.2289
   384.84         22.4616
   384.98         22.5851
   385.12         22.6230
   385.26         22.6069
   385.40         22.5689
   385.54         22.5394
   385.68         22.5423
   385.82         22.5848
   385.96         22.6569
   386.10         22.7411
   386.24         22.8285
   386.38         22.9228
   386.52         23.0299
   386.66         23.1499
   386.80         23.2780
   386.94         23.4089
   387.08         23.5433
   387.22         23.6900
   387.36         23.8632
   387.50         24.0758
   387.64         24.3354
   387.78         24.6456
   387.92         25.0101
   388.06         25.4363
   388.20         25.9342
   388.34         26.5119
   388.48         27.1782
   388.62         27.9439
   388.76         28.8165
   388.90         29.7886
   389.04         30.8272
   389.18         31.8754
   389.32         32.8712
   389.46         33.7634
   389.60         34.5204
   389.74         35.1329
   389.88         35.6109
   390.02         35.9798
   390.16         36.2746
   390.30         36.5353
   390.44         36.7979
   390.58         37.0817
   390.72         37.3794
   390.86         37.6569
   391.00         37.8657
   391.14         37.9587
   391.28         37.8932
   391.42         37.6295
   391.56         37.1291
   391.70         36.3569
   391.84         35.2908
   391.98         33.9267
   392.12         32.2824
   392.26         30.4011
   392.40         28.3504
   392.54         26.2185
   392.68         24.1101
   392.82         22.1384
   392.96         20.4143
   393.10         19.0365
   393.24         18.0852
   393.38         17.6198
   393.52         17.6734
   393.66         18.2485
   393.80         19.3147
   393.94         20.8068
   394.08         22.6252
   394.22         24.6479
   394.36         26.7491
   394.50         28.8123
   394.64         30.7403
   394.78         32.4580
   394.92         33.9035
   395.06         35.0202
   395.20         35.7572
   395.34         36.0677
   395.48         35.9104
   395.62         35.2581
   395.76         34.1150
   395.90         32.5345
   396.04         30.6248
   396.18         28.5376
   396.32         26.4539
   396.46         24.5679
   396.60         23.0676
   396.74         22.1124
   396.88         21.8178
   397.02         22.2403
   397.16         23.3688
   397.30         25.1292
   397.44         27.3962
   397.58         30.0110
   397.72         32.8038
   397.86         35.6145
   398.00         38.3065
   398.14         40.7760
   398.28         42.9584
   398.42         44.8263
   398.56         46.3855
   398.70         47.6698
   398.84         48.7308
   398.98         49.6231
   399.12         50.3890
   399.26         51.0490
   399.40         51.6021
   399.54         52.0433
   399.68         52.3813
   399.82         52.6396
   399.96         52.8499
   400.10         53.0470
   400.24         53.2632
   400.38         53.5214
   400.52         53.8358
   400.66         54.2112
   400.80         54.6428
   400.94         55.1190
   401.08         55.6242
   401.22         56.1418
   401.36         56.6556
   401.50         57.1470
   401.64         57.5860
   401.78         57.9285
   401.92         58.1301
   402.06         58.1628
   402.20         58.0259
   402.34         57.7418
   402.48         57.3480
   402.62         56.8953
   402.76         56.4410
   402.90         56.0353
   403.04         55.7102
   403.18         55.4715
   403.32         55.2983
   403.46         55.1607
   403.60         55.0410
   403.74         54.9370
   403.88         54.8540
   404.02         54.7947
   404.16         54.7494
   404.30         54.6934
   404.44         54.5967
   404.58         54.4441
   404.72         54.2454
   404.86         54.0276
   405.00         53.8125
   405.14         53.6007
   405.28         53.3762
   405.42         53.1185
   405.56         52.8220
   405.70         52.5019
   405.84         52.1839
   405.98         51.9039
   406.12         51.7127
   406.26         51.6534
   406.40         51.7254
   406.54         51.8875
   406.68         52.0883
   406.82         52.2981
   406.96         52.5136
   407.10         52.7440
   407.24         53.0039
   407.38         53.3080
   407.52         53.6685
   407.66         54.0986
   407.80         54.6190
   407.94         55.2529
   408.08         56.0084
   408.22         56.8634
   408.36         57.7567
   408.50         58.5981
   408.64         59.2930
   408.78         59.7575
   408.92         59.9193
   409.06         59.7357
   409.20         59.2243
   409.34         58.4621
   409.48         57.5556
   409.62         56.6064
   409.76         55.6995
   409.90         54.9130
   410.04         54.3229
   410.18         53.9942
   410.32         53.9648
   410.46         54.2319
   410.60         54.7501
   410.74         55.4417
   410.88         56.2116
   411.02         56.9636
   411.16         57.6178
   411.30         58.1215
   411.44         58.4466
   411.58         58.5861
   411.72         58.5534
   411.86         58.3729
   412.00         58.0632
   412.14         57.6367
   412.28         57.1131
   412.42         56.5298
   412.56         55.9436
   412.70         55.4193
   412.84         55.0053
   412.98         54.7158
   413.12         54.5305
   413.26         54.4149
   413.40         54.3427
   413.54         54.2990
   413.68         54.2729
   413.82         54.2511
   413.96         54.2155
   414.10         54.1452
   414.24         54.0239
   414.38         53.8446
   414.52         53.6142
   414.66         53.3590
   414.80         53.1241
   414.94         52.9625
   415.08         52.9189
   415.22         53.0160
   415.36         53.2459
   415.50         53.5724
   415.64         53.9507
   415.78         54.3472
   415.92         54.7383
   416.06         55.0943
   416.20         55.3694
   416.34         55.5147
   416.48         55.4953
   416.62         55.2953
   416.76         54.9198
   416.90         54.3958
   417.04         53.7716
   417.18         53.1163
   417.32         52.5104
   417.46         52.0235
   417.60         51.7003
   417.74         51.5596
   417.88         51.5968
   418.02         51.7910
   418.16         52.1118
   418.30         52.5178
   418.44         52.9484
   418.58         53.3288
   418.72         53.5949
   418.86         53.7122
   419.00         53.6743
   419.14         53.4966
   419.28         53.2158
   419.42         52.8899
   419.56         52.5893
   419.70         52.3834
   419.84         52.3275
   419.98         52.4522
   420.12         52.7583
   420.26         53.2203
   420.40         53.7961
   420.54         54.4425
   420.68         55.1268
   420.82         55.8281
   420.96         56.5274
   421.10         57.1980
   421.24         57.8004
   421.38         58.2807
   421.52         58.5817
   421.66         58.6757
   421.80         58.5822
   421.94         58.3562
   422.08         58.0608
   422.22         57.7482
   422.36         57.4553
   422.50         57.2045
   422.64         57.0116
   422.78         56.8936
   422.92         56.8709
   423.06         56.9711
   423.20         57.2242
   423.34         57.6407
   423.48         58.1899
   423.62         58.7974
   423.76         59.3669
   423.90         59.8162
   424.04         60.1087
   424.18         60.2614
   424.32         60.3194
   424.46         60.3219
   424.60         60.2826
   424.74         60.1885
   424.88         60.0171
   425.02         59.7659
   425.16         59.4710
   425.30         59.1989
   425.44         59.0207
   425.58         58.9853
   425.72         59.1037
   425.86         59.3412
   426.00         59.6203
   426.14         59.8455
   426.28         59.9389
   426.42         59.8629
   426.56         59.6265
   426.70         59.2709
   426.84         58.8433
   426.98         58.3846
   427.12         57.9350
   427.26         57.5295
   427.40         57.1948
   427.54         56.9554
   427.68         56.8306
   427.82         56.8138
   427.96         56.8636
   428.10         56.9206
   428.24         56.9247
   428.38         56.8273
   428.52         56.5942
   428.66         56.2068
   428.80         55.6662
   428.94         54.9881
   429.08         54.1955
   429.22         53.3108
   429.36         52.3460
   429.50         51.3020
   429.64         50.1779
   429.78         48.9845
   429.92         47.7570
   430.06         46.5603
   430.20         45.4866
   430.34         44.6507
   430.48         44.1846
   430.62         44.2168
   430.76         44.8371
   430.90         46.0647
   431.04         47.8331
   431.18         49.9973
   431.32         52.3627
   431.46         54.7301
   431.60         56.9389
   431.74         58.8831
   431.88         60.4981
   432.02         61.7542
   432.16         62.6646
   432.30         63.2854
   432.44         63.7021
   432.58         64.0003
   432.72         64.2363
   432.86         64.4329
   433.00         64.5934
   433.14         64.7108
   433.28         64.7690
   433.42         64.7500
   433.56         64.6462
   433.70         64.4698
   433.84         64.2542
   433.98         64.0450
   434.12         63.8983
   434.26         63.8765
   434.40         64.0221
   434.54         64.3456
   434.68         64.8299
   434.82         65.4359
   434.96         66.1133
   435.10         66.8139
   435.24         67.5062
   435.38         68.1823
   435.52         68.8535
   435.66         69.5368
   435.80         70.2400
   435.94         70.9506
   436.08         71.6285
   436.22         72.2081
   436.36         72.6134
   436.50         72.7846
   436.64         72.7012
   436.78         72.3880
   436.92         71.8908
   437.06         71.2356
   437.20         70.4173
   437.34         69.4256
   437.48         68.2810
   437.62         67.0423
   437.76         65.7815
   437.90         64.5635
   438.04         63.4432
   438.18         62.4710
   438.32         61.6987
   438.46         61.1828
   438.60         60.9718
   438.74         61.0844
   438.88         61.5003
   439.02         62.1714
   439.16         63.0281
   439.30         63.9681
   439.44         64.8638
   439.58         65.5962
   439.72         66.0885
   439.86         66.3354
   440.00         66.4057
   440.14         66.3965
   440.28         66.3813
   440.42         66.3999
   440.56         66.4827
   440.70         66.6643
   440.84         66.9731
   440.98         67.4149
   441.12         67.9687
   441.26         68.5893
   441.40         69.2178
   441.54         69.7997
   441.68         70.2972
   441.82         70.6864
   441.96         70.9542
   442.10         71.1030
   442.24         71.1468
   442.38         71.1061
   442.52         71.0092
   442.66         70.8886
   442.80         70.7681
   442.94         70.6581
   443.08         70.5721
   443.22         70.5363
   443.36         70.5830
   443.50         70.7371
   443.64         71.0083
   443.78         71.3950
   443.92         71.8857
   444.06         72.4507
   444.20         73.0339
   444.34         73.5595
   444.48         73.9511
   444.62         74.1491
   444.76         74.1163
   444.90         73.8400
   445.04         73.3393
   445.18         72.6642
   445.32         71.8823
   445.46         71.0633
   445.60         70.2782
   445.74         69.6059
   445.88         69.1263
   446.02         68.9058
   446.16         68.9851
   446.30         69.3737
   446.44         70.0555
   446.58         70.9905
   446.72         72.1082
   446.86         73.3105
   447.00         74.4980
   447.14         75.5962
   447.28         76.5638
   447.42         77.3867
   447.56         78.0614
   447.70         78.5866
   447.84         78.9650
   447.98         79.2041
   448.12         79.3132
   448.26         79.3008
   448.40         79.1820
   448.54         78.9905
   448.68         78.7763
   448.82         78.5874
   448.96         78.4603
   449.10         78.4273
   449.24         78.5173
   449.38         78.7495
   449.52         79.1328
   449.66         79.6749
   449.80         80.3752
   449.94         81.2024
   450.08         82.0852
   450.22         82.9260
   450.36         83.6359
   450.50         84.1557
   450.64         84.4564
   450.78         84.5354
   450.92         84.4127
   451.06         84.1253
   451.20         83.7159
   451.34         83.2163
   451.48         82.6385
   451.62         81.9860
   451.76         81.2652
   451.90         80.4828
   452.04         79.6463
   452.18         78.7683
   452.32         77.8733
   452.46         77.0045
   452.60         76.2202
   452.74         75.5798
   452.88         75.1318
   453.02         74.9096
   453.16         74.9234
   453.30         75.1528
   453.44         75.5486
   453.58         76.0367
   453.72         76.5316
   453.86         76.9589
   454.00         77.2693
   454.14         77.4378
   454.28         77.4678
   454.42         77.3949
   454.56         77.2799
   454.70         77.1936
   454.84         77.2020
   454.98         77.3557
   455.12         77.6772
   455.26         78.1488
   455.40         78.7222
   455.54         79.3479
   455.68         79.9907
   455.82         80.6208
   455.96         81.2085
   456.10         81.7341
   456.24         82.1933
   456.38         82.5924
   456.52         82.9405
   456.66         83.2331
   456.80         83.4501
   456.94         83.5718
