# File HD28099
# Wavelength [nm]    Normalized Amplitude
   349.70         15.4563
   349.84         15.4023
   349.98         15.3994
   350.12         15.4406
   350.26         15.5121
   350.40         15.5966
   350.54         15.6797
   350.68         15.7514
   350.82         15.8046
   350.96         15.8361
   351.10         15.8464
   351.24         15.8361
   351.38         15.8046
   351.52         15.7514
   351.66         15.6797
   351.80         15.5966
   351.94         15.5121
   352.08         15.4406
   352.22         15.3994
   352.36         15.4023
   352.50         15.4563
   352.64         15.5602
   352.78         15.7099
   352.92         15.9008
   353.06         16.1261
   353.20         16.3760
   353.34         16.6369
   353.48         16.8920
   353.62         17.1229
   353.76         17.3156
   353.90         17.4628
   354.04         17.5626
   354.18         17.6169
   354.32         17.6297
   354.46         17.6053
   354.60         17.5455
   354.74         17.4519
   354.88         17.3278
   355.02         17.1800
   355.16         17.0176
   355.30         16.8489
   355.44         16.6776
   355.58         16.5031
   355.72         16.3208
   355.86         16.1251
   356.00         15.9114
   356.14         15.6790
   356.28         15.4332
   356.42         15.1855
   356.56         14.9489
   356.70         14.7320
   356.84         14.5377
   356.98         14.3638
   357.12         14.2036
   357.26         14.0478
   357.40         13.8875
   357.54         13.7172
   357.68         13.5351
   357.82         13.3445
   357.96         13.1559
   358.10         12.9887
   358.24         12.8685
   358.38         12.8226
   358.52         12.8772
   358.66         13.0543
   358.80         13.3651
   358.94         13.8022
   359.08         14.3360
   359.22         14.9184
   359.36         15.4924
   359.50         16.0032
   359.64         16.4063
   359.78         16.6715
   359.92         16.7852
   360.06         16.7513
   360.20         16.5916
   360.34         16.3421
   360.48         16.0467
   360.62         15.7466
   360.76         15.4709
   360.90         15.2347
   361.04         15.0449
   361.18         14.9070
   361.32         14.8262
   361.46         14.8046
   361.60         14.8409
   361.74         14.9314
   361.88         15.0714
   362.02         15.2511
   362.16         15.4541
   362.30         15.6617
   362.44         15.8583
   362.58         16.0349
   362.72         16.1890
   362.86         16.3217
   363.00         16.4350
   363.14         16.5282
   363.28         16.5973
   363.42         16.6388
   363.56         16.6539
   363.70         16.6482
   363.84         16.6281
   363.98         16.5976
   364.12         16.5611
   364.26         16.5258
   364.40         16.5007
   364.54         16.4933
   364.68         16.5114
   364.82         16.5691
   364.96         16.6845
   365.10         16.8699
   365.24         17.1266
   365.38         17.4450
   365.52         17.8060
   365.66         18.1836
   365.80         18.5467
   365.94         18.8637
   366.08         19.1101
   366.22         19.2745
   366.36         19.3590
   366.50         19.3765
   366.64         19.3445
   366.78         19.2788
   366.92         19.1897
   367.06         19.0822
   367.20         18.9603
   367.34         18.8283
   367.48         18.6909
   367.62         18.5481
   367.76         18.3983
   367.90         18.2461
   368.04         18.1048
   368.18         17.9919
   368.32         17.9206
   368.46         17.8960
   368.60         17.9163
   368.74         17.9794
   368.88         18.0848
   369.02         18.2284
   369.16         18.3983
   369.30         18.5736
   369.44         18.7274
   369.58         18.8328
   369.72         18.8671
   369.86         18.8159
   370.00         18.6758
   370.14         18.4591
   370.28         18.1936
   370.42         17.9199
   370.56         17.6824
   370.70         17.5150
   370.84         17.4284
   370.98         17.4101
   371.12         17.4336
   371.26         17.4740
   371.40         17.5158
   371.54         17.5504
   371.68         17.5691
   371.82         17.5623
   371.96         17.5219
   372.10         17.4433
   372.24         17.3236
   372.38         17.1613
   372.52         16.9578
   372.66         16.7208
   372.80         16.4644
   372.94         16.2063
   373.08         15.9641
   373.22         15.7486
   373.36         15.5597
   373.50         15.3905
   373.64         15.2343
   373.78         15.0907
   373.92         14.9653
   374.06         14.8668
   374.20         14.8050
   374.34         14.7898
   374.48         14.8290
   374.62         14.9249
   374.76         15.0713
   374.90         15.2602
   375.04         15.4892
   375.18         15.7622
   375.32         16.0816
   375.46         16.4409
   375.60         16.8209
   375.74         17.1896
   375.88         17.5073
   376.02         17.7405
   376.16         17.8747
   376.30         17.9201
   376.44         17.9076
   376.58         17.8815
   376.72         17.8911
   376.86         17.9793
   377.00         18.1719
   377.14         18.4752
   377.28         18.8788
   377.42         19.3602
   377.56         19.8876
   377.70         20.4205
   377.84         20.9117
   377.98         21.3146
   378.12         21.5913
   378.26         21.7143
   378.40         21.6667
   378.54         21.4451
   378.68         21.0609
   378.82         20.5394
   378.96         19.9194
   379.10         19.2516
   379.24         18.5955
   379.38         18.0108
   379.52         17.5472
   379.66         17.2382
   379.80         17.1011
   379.94         17.1367
   380.08         17.3277
   380.22         17.6388
   380.36         18.0227
   380.50         18.4276
   380.64         18.8047
   380.78         19.1110
   380.92         19.3098
   381.06         19.3758
   381.20         19.3006
   381.34         19.0913
   381.48         18.7656
   381.62         18.3484
   381.76         17.8665
   381.90         17.3429
   382.04         16.7928
   382.18         16.2250
   382.32         15.6467
   382.46         15.0674
   382.60         14.4987
   382.74         13.9516
   382.88         13.4379
   383.02         12.9770
   383.16         12.5985
   383.30         12.3387
   383.44         12.2297
   383.58         12.2928
   383.72         12.5343
   383.86         12.9456
   384.00         13.5042
   384.14         14.1785
   384.28         14.9318
   384.42         15.7228
   384.56         16.5068
   384.70         17.2377
   384.84         17.8739
   384.98         18.3878
   385.12         18.7714
   385.26         19.0359
   385.40         19.2047
   385.54         19.3093
   385.68         19.3836
   385.82         19.4550
   385.96         19.5369
   386.10         19.6296
   386.24         19.7266
   386.38         19.8203
   386.52         19.9035
   386.66         19.9666
   386.80         19.9961
   386.94         19.9771
   387.08         19.8971
   387.22         19.7489
   387.36         19.5307
   387.50         19.2462
   387.64         18.9037
   387.78         18.5151
   387.92         18.0961
   388.06         17.6677
   388.20         17.2545
   388.34         16.8826
   388.48         16.5786
   388.62         16.3698
   388.76         16.2810
   388.90         16.3302
   389.04         16.5232
   389.18         16.8483
   389.32         17.2791
   389.46         17.7827
   389.60         18.3276
   389.74         18.8877
   389.88         19.4426
   390.02         19.9780
   390.16         20.4866
   390.30         20.9684
   390.44         21.4298
   390.58         21.8782
   390.72         22.3138
   390.86         22.7241
   391.00         23.0872
   391.14         23.3800
   391.28         23.5832
   391.42         23.6806
   391.56         23.6588
   391.70         23.5054
   391.84         23.2076
   391.98         22.7552
   392.12         22.1449
   392.26         21.3840
   392.40         20.4930
   392.54         19.5068
   392.68         18.4746
   392.82         17.4559
   392.96         16.5140
   393.10         15.7093
   393.24         15.0922
   393.38         14.6998
   393.52         14.5561
   393.66         14.6704
   393.80         15.0345
   393.94         15.6200
   394.08         16.3771
   394.22         17.2404
   394.36         18.1385
   394.50         19.0021
   394.64         19.7748
   394.78         20.4180
   394.92         20.9089
   395.06         21.2350
   395.20         21.3875
   395.34         21.3574
   395.48         21.1335
   395.62         20.7050
   395.76         20.0684
   395.90         19.2367
   396.04         18.2454
   396.18         17.1521
   396.32         16.0294
   396.46         14.9600
   396.60         14.0295
   396.74         13.3169
   396.88         12.8868
   397.02         12.7827
   397.16         13.0206
   397.30         13.5870
   397.44         14.4405
   397.58         15.5169
   397.72         16.7403
   397.86         18.0343
   398.00         19.3282
   398.14         20.5620
   398.28         21.6931
   398.42         22.6985
   398.56         23.5712
   398.70         24.3175
   398.84         24.9525
   398.98         25.4952
   399.12         25.9632
   399.26         26.3677
   399.40         26.7121
   399.54         26.9947
   399.68         27.2149
   399.82         27.3769
   399.96         27.4911
   400.10         27.5737
   400.24         27.6436
   400.38         27.7200
   400.52         27.8195
   400.66         27.9528
   400.80         28.1250
   400.94         28.3352
   401.08         28.5764
   401.22         28.8383
   401.36         29.1106
   401.50         29.3817
   401.64         29.6365
   401.78         29.8566
   401.92         30.0222
   402.06         30.1159
   402.20         30.1279
   402.34         30.0600
   402.48         29.9259
   402.62         29.7487
   402.76         29.5577
   402.90         29.3813
   403.04         29.2412
   403.18         29.1482
   403.32         29.0975
   403.46         29.0722
   403.60         29.0557
   403.74         29.0397
   403.88         29.0234
   404.02         29.0055
   404.16         28.9816
   404.30         28.9450
   404.44         28.8890
   404.58         28.8107
   404.72         28.7143
   404.86         28.6103
   405.00         28.5102
   405.14         28.4189
   405.28         28.3319
   405.42         28.2382
   405.56         28.1245
   405.70         27.9825
   405.84         27.8104
   405.98         27.6126
   406.12         27.4034
   406.26         27.2052
   406.40         27.0375
   406.54         26.9055
   406.68         26.8032
   406.82         26.7246
   406.96         26.6701
   407.10         26.6438
   407.24         26.6471
   407.38         26.6771
   407.52         26.7291
   407.66         26.8000
   407.80         26.8889
   407.94         26.9937
   408.08         27.1085
   408.22         27.2222
   408.36         27.3184
   408.50         27.3740
   408.64         27.3625
   408.78         27.2593
   408.92         27.0433
   409.06         26.6991
   409.20         26.2243
   409.34         25.6389
   409.48         24.9855
   409.62         24.3180
   409.76         23.6901
   409.90         23.1499
   410.04         22.7410
   410.18         22.5005
   410.32         22.4537
   410.46         22.6078
   410.60         22.9508
   410.74         23.4552
   410.88         24.0814
   411.02         24.7801
   411.16         25.4983
   411.30         26.1875
   411.44         26.8087
   411.58         27.3347
   411.72         27.7539
   411.86         28.0703
   412.00         28.2951
   412.14         28.4389
   412.28         28.5105
   412.42         28.5210
   412.56         28.4871
   412.70         28.4334
   412.84         28.3876
   412.98         28.3714
   413.12         28.3933
   413.26         28.4494
   413.40         28.5312
   413.54         28.6315
   413.68         28.7443
   413.82         28.8622
   413.96         28.9755
   414.10         29.0717
   414.24         29.1375
   414.38         29.1616
   414.52         29.1370
   414.66         29.0629
   414.80         28.9472
   414.94         28.8082
   415.08         28.6712
   415.22         28.5608
   415.36         28.4962
   415.50         28.4866
   415.64         28.5299
   415.78         28.6175
   415.92         28.7391
   416.06         28.8813
   416.20         29.0243
   416.34         29.1433
   416.48         29.2154
   416.62         29.2246
   416.76         29.1644
   416.90         29.0389
   417.04         28.8612
   417.18         28.6515
   417.32         28.4341
   417.46         28.2326
   417.60         28.0647
   417.74         27.9397
   417.88         27.8609
   418.02         27.8281
   418.16         27.8376
   418.30         27.8816
   418.44         27.9489
   418.58         28.0232
   418.72         28.0861
   418.86         28.1215
   419.00         28.1198
   419.14         28.0770
   419.28         27.9959
   419.42         27.8872
   419.56         27.7682
   419.70         27.6580
   419.84         27.5747
   419.98         27.5346
   420.12         27.5512
   420.26         27.6332
   420.40         27.7827
   420.54         27.9907
   420.68         28.2389
   420.82         28.5038
   420.96         28.7608
   421.10         28.9840
   421.24         29.1491
   421.38         29.2347
   421.52         29.2215
   421.66         29.0988
   421.80         28.8737
   421.94         28.5737
   422.08         28.2367
   422.22         27.8977
   422.36         27.5824
   422.50         27.3090
   422.64         27.0907
   422.78         26.9361
   422.92         26.8485
   423.06         26.8265
   423.20         26.8676
   423.34         26.9684
   423.48         27.1191
   423.62         27.2992
   423.76         27.4791
   423.90         27.6278
   424.04         27.7220
   424.18         27.7526
   424.32         27.7275
   424.46         27.6648
   424.60         27.5814
   424.74         27.4861
   424.88         27.3785
   425.02         27.2569
   425.16         27.1279
   425.30         27.0099
   425.44         26.9262
   425.58         26.8967
   425.72         26.9300
   425.86         27.0195
   426.00         27.1425
   426.14         27.2655
   426.28         27.3547
   426.42         27.3888
   426.56         27.3638
   426.70         27.2919
   426.84         27.1934
   426.98         27.0882
   427.12         26.9940
   427.26         26.9261
   427.40         26.8944
   427.54         26.9027
   427.68         26.9511
   427.82         27.0349
   427.96         27.1400
   428.10         27.2428
   428.24         27.3181
   428.38         27.3435
   428.52         27.3042
   428.66         27.1937
   428.80         27.0120
   428.94         26.7646
   429.08         26.4606
   429.22         26.1087
   429.36         25.7163
   429.50         25.2884
   429.64         24.8281
   429.78         24.3405
   429.92         23.8347
   430.06         23.3263
   430.20         22.8372
   430.34         22.3963
   430.48         22.0408
   430.62         21.8141
   430.76         21.7560
   430.90         21.8899
   431.04         22.2149
   431.18         22.7044
   431.32         23.3076
   431.46         23.9576
   431.60         24.5878
   431.74         25.1475
   431.88         25.6056
   432.02         25.9452
   432.16         26.1603
   432.30         26.2552
   432.44         26.2457
   432.58         26.1535
   432.72         25.9979
   432.86         25.7893
   433.00         25.5301
   433.14         25.2219
   433.28         24.8695
   433.42         24.4804
   433.56         24.0676
   433.70         23.6517
   433.84         23.2593
   433.98         22.9195
   434.12         22.6618
   434.26         22.5160
   434.40         22.5078
   434.54         22.6479
   434.68         22.9284
   434.82         23.3251
   434.96         23.8037
   435.10         24.3264
   435.24         24.8565
   435.38         25.3659
   435.52         25.8408
   435.66         26.2810
   435.80         26.6943
   435.94         27.0875
   436.08         27.4604
   436.22         27.8041
   436.36         28.1006
   436.50         28.3298
   436.64         28.4761
   436.78         28.5360
   436.92         28.5189
   437.06         28.4380
   437.20         28.3013
   437.34         28.1090
   437.48         27.8606
   437.62         27.5658
   437.76         27.2432
   437.90         26.9143
   438.04         26.5998
   438.18         26.3178
   438.32         26.0825
   438.46         25.9063
   438.60         25.8025
   438.74         25.7820
   438.88         25.8482
   439.02         25.9953
   439.16         26.2113
   439.30         26.4751
   439.44         26.7555
   439.58         27.0160
   439.72         27.2245
   439.86         27.3636
   440.00         27.4365
   440.14         27.4657
   440.28         27.4783
   440.42         27.4909
   440.56         27.5109
   440.70         27.5445
   440.84         27.6018
   440.98         27.6921
   441.12         27.8205
   441.26         27.9852
   441.40         28.1762
   441.54         28.3789
   441.68         28.5796
   441.82         28.7671
   441.96         28.9314
   442.10         29.0665
   442.24         29.1724
   442.38         29.2507
   442.52         29.3023
   442.66         29.3299
   442.80         29.3368
   442.94         29.3255
   443.08         29.2990
   443.22         29.2629
   443.36         29.2280
   443.50         29.2058
   443.64         29.2029
   443.78         29.2230
   443.92         29.2681
   444.06         29.3383
   444.20         29.4275
   444.34         29.5205
   444.48         29.5942
   444.62         29.6248
   444.76         29.5958
   444.90         29.5003
   445.04         29.3417
   445.18         29.1339
   445.32         28.8985
   445.46         28.6567
   445.60         28.4260
   445.74         28.2208
   445.88         28.0559
   446.02         27.9484
   446.16         27.9125
   446.30         27.9541
   446.44         28.0700
   446.58         28.2484
   446.72         28.4692
   446.86         28.7040
   447.00         28.9228
   447.14         29.1027
   447.28         29.2348
   447.42         29.3234
   447.56         29.3774
   447.70         29.4060
   447.84         29.4152
   447.98         29.4078
   448.12         29.3863
   448.26         29.3534
   448.40         29.3127
   448.54         29.2698
   448.68         29.2331
   448.82         29.2108
   448.96         29.2068
   449.10         29.2218
   449.24         29.2551
   449.38         29.3079
   449.52         29.3840
   449.66         29.4907
   449.80         29.6356
   449.94         29.8228
   450.08         30.0463
   450.22         30.2883
   450.36         30.5253
   450.50         30.7348
   450.64         30.8997
   450.78         31.0097
   450.92         31.0605
   451.06         31.0531
   451.20         30.9930
   451.34         30.8870
   451.48         30.7401
   451.62         30.5548
   451.76         30.3345
   451.90         30.0853
   452.04         29.8150
   452.18         29.5299
   452.32         29.2363
   452.46         28.9446
   452.60         28.6722
   452.74         28.4379
   452.88         28.2578
   453.02         28.1455
   453.16         28.1112
   453.30         28.1577
   453.44         28.2784
   453.58         28.4560
   453.72         28.6629
   453.86         28.8692
   454.00         29.0506
   454.14         29.1902
   454.28         29.2780
   454.42         29.3124
   454.56         29.3004
   454.70         29.2575
   454.84         29.2045
   454.98         29.1632
   455.12         29.1515
   455.26         29.1752
   455.40         29.2286
   455.54         29.3034
   455.68         29.3930
   455.82         29.4905
   455.96         29.5851
   456.10         29.6661
   456.24         29.7286
   456.38         29.7739
   456.52         29.8091
   456.66         29.8397
   456.80         29.8649
   456.94         29.8796
