# File HD28696
# Wavelength [nm]    Normalized Amplitude
   349.70         75.7174
   349.84         75.6603
   349.98         75.6479
   350.12         75.6765
   350.26         75.7295
   350.40         75.7840
   350.54         75.8228
   350.68         75.8452
   350.82         75.8598
   350.96         75.8720
   351.10         75.8776
   351.24         75.8720
   351.38         75.8598
   351.52         75.8452
   351.66         75.8228
   351.80         75.7840
   351.94         75.7295
   352.08         75.6765
   352.22         75.6479
   352.36         75.6603
   352.50         75.7174
   352.64         75.8028
   352.78         75.8969
   352.92         75.9885
   353.06         76.0661
   353.20         76.1092
   353.34         76.0930
   353.48         75.9977
   353.62         75.8128
   353.76         75.5442
   353.90         75.2178
   354.04         74.8748
   354.18         74.5577
   354.32         74.2958
   354.46         74.1065
   354.60         73.9940
   354.74         73.9502
   354.88         73.9584
   355.02         74.0007
   355.16         74.0649
   355.30         74.1402
   355.44         74.2092
   355.58         74.2397
   355.72         74.2043
   355.86         74.0916
   356.00         73.9048
   356.14         73.6652
   356.28         73.4084
   356.42         73.1836
   356.56         73.0422
   356.70         73.0146
   356.84         73.1012
   356.98         73.2880
   357.12         73.5573
   357.26         73.8798
   357.40         74.2142
   357.54         74.5165
   357.68         74.7516
   357.82         74.8925
   357.96         74.9157
   358.10         74.8141
   358.24         74.6138
   358.38         74.3673
   358.52         74.1235
   358.66         73.9285
   358.80         73.8239
   358.94         73.8223
   359.08         73.9026
   359.22         74.0143
   359.36         74.0951
   359.50         74.1052
   359.64         74.0390
   359.78         73.9066
   359.92         73.7226
   360.06         73.5100
   360.20         73.3127
   360.34         73.1811
   360.48         73.1466
   360.62         73.2224
   360.76         73.4058
   360.90         73.6735
   361.04         73.9867
   361.18         74.2977
   361.32         74.5594
   361.46         74.7291
   361.60         74.7731
   361.74         74.6784
   361.88         74.4492
   362.02         74.1067
   362.16         73.6839
   362.30         73.2096
   362.44         72.6954
   362.58         72.1479
   362.72         71.5910
   362.86         71.0589
   363.00         70.5597
   363.14         70.0769
   363.28         69.5996
   363.42         69.1273
   363.56         68.6681
   363.70         68.2341
   363.84         67.8332
   363.98         67.4768
   364.12         67.1843
   364.26         66.9744
   364.40         66.8629
   364.54         66.8634
   364.68         66.9842
   364.82         67.2254
   364.96         67.5774
   365.10         68.0202
   365.24         68.5309
   365.38         69.0835
   365.52         69.6372
   365.66         70.1457
   365.80         70.5864
   365.94         70.9546
   366.08         71.2390
   366.22         71.4265
   366.36         71.5179
   366.50         71.5281
   366.64         71.4781
   366.78         71.3891
   366.92         71.2724
   367.06         71.1284
   367.20         70.9575
   367.34         70.7687
   367.48         70.5794
   367.62         70.4078
   367.76         70.2710
   367.90         70.1906
   368.04         70.1833
   368.18         70.2482
   368.32         70.3723
   368.46         70.5419
   368.60         70.7423
   368.74         70.9572
   368.88         71.1700
   369.02         71.3687
   369.16         71.5366
   369.30         71.6417
   369.44         71.6566
   369.58         71.5766
   369.72         71.4172
   369.86         71.2039
   370.00         70.9608
   370.14         70.7108
   370.28         70.4896
   370.42         70.3501
   370.56         70.3423
   370.70         70.4873
   370.84         70.7635
   370.98         71.1191
   371.12         71.4931
   371.26         71.8297
   371.40         72.1001
   371.54         72.3195
   371.68         72.5357
   371.82         72.7996
   371.96         73.1477
   372.10         73.5935
   372.24         74.1072
   372.38         74.6194
   372.52         75.0673
   372.66         75.4414
   372.80         75.7965
   372.94         76.2254
   373.08         76.8189
   373.22         77.6299
   373.36         78.6550
   373.50         79.8369
   373.64         81.0892
   373.78         82.3127
   373.92         83.4032
   374.06         84.2700
   374.20         84.8543
   374.34         85.1389
   374.48         85.1585
   374.62         85.0007
   374.76         84.8013
   374.90         84.7417
   375.04         85.0309
   375.18         85.8562
   375.32         87.3222
   375.46         89.3959
   375.60         91.8803
   375.74         94.4377
   375.88         96.6616
   376.02         98.1687
   376.16         98.6901
   376.30         98.1431
   376.44         96.6564
   376.58         94.5493
   376.72         92.2708
   376.86         90.3095
   377.00         89.1122
   377.14         89.0238
   377.28         90.2384
   377.42         92.7786
   377.56         96.5097
   377.70         101.1609
   377.84         106.3401
   377.98         111.5724
   378.12         116.3543
   378.26         120.2051
   378.40         122.7264
   378.54         123.6484
   378.68         122.8686
   378.82         120.4757
   378.96         116.7362
   379.10         112.0572
   379.24         106.9376
   379.38         101.9076
   379.52         97.4696
   379.66         94.0610
   379.80         92.0220
   379.94         91.5593
   380.08         92.7417
   380.22         95.5025
   380.36         99.6332
   380.50         104.7974
   380.64         110.5704
   380.78         116.4962
   380.92         122.1375
   381.06         127.1341
   381.20         131.2511
   381.34         134.3878
   381.48         136.5365
   381.62         137.7332
   381.76         138.0303
   381.90         137.4670
   382.04         136.0453
   382.18         133.7352
   382.32         130.5113
   382.46         126.3889
   382.60         121.4581
   382.74         115.9153
   382.88         110.0578
   383.02         104.2534
   383.16         98.9046
   383.30         94.4098
   383.44         91.1261
   383.58         89.3175
   383.72         89.1258
   383.86         90.5649
   384.00         93.5095
   384.14         97.7102
   384.28         102.8341
   384.42         108.5020
   384.56         114.3190
   384.70         119.9191
   384.84         125.0076
   384.98         129.3928
   385.12         133.0011
   385.26         135.8600
   385.40         138.0543
   385.54         139.6853
   385.68         140.8564
   385.82         141.6670
   385.96         142.1983
   386.10         142.5125
   386.24         142.6581
   386.38         142.6745
   386.52         142.5866
   386.66         142.3919
   386.80         142.0563
   386.94         141.5201
   387.08         140.7015
   387.22         139.4952
   387.36         137.7707
   387.50         135.3840
   387.64         132.2030
   387.78         128.1432
   387.92         123.2104
   388.06         117.5354
   388.20         111.3811
   388.34         105.1162
   388.48         99.1642
   388.62         93.9515
   388.76         89.8682
   388.90         87.2269
   389.04         86.2321
   389.18         86.9652
   389.32         89.3694
   389.46         93.2476
   389.60         98.2903
   389.74         104.1100
   389.88         110.2763
   390.02         116.3725
   390.16         122.0516
   390.30         127.0796
   390.44         131.3517
   390.58         134.8677
   390.72         137.6896
   390.86         139.8995
   391.00         141.5757
   391.14         142.7916
   391.28         143.6186
   391.42         144.1212
   391.56         144.3599
   391.70         144.3972
   391.84         144.2926
   391.98         144.0891
   392.12         143.8079
   392.26         143.4539
   392.40         143.0296
   392.54         142.5491
   392.68         142.0392
   392.82         141.5353
   392.96         141.0809
   393.10         140.7073
   393.24         140.4204
   393.38         140.2154
   393.52         140.0843
   393.66         140.0169
   393.80         140.0041
   393.94         140.0266
   394.08         140.0459
   394.22         140.0143
   394.36         139.8845
   394.50         139.6030
   394.64         139.1149
   394.78         138.3811
   394.92         137.3824
   395.06         136.1028
   395.20         134.5069
   395.34         132.5308
   395.48         130.0891
   395.62         127.0835
   395.76         123.4231
   395.90         119.0705
   396.04         114.0828
   396.18         108.6269
   396.32         102.9716
   396.46         97.4553
   396.60         92.4449
   396.74         88.2985
   396.88         85.3256
   397.02         83.7542
   397.16         83.7067
   397.30         85.1789
   397.44         88.0342
   397.58         92.0204
   397.72         96.8064
   397.86         102.0255
   398.00         107.3158
   398.14         112.3570
   398.28         116.9022
   398.42         120.8022
   398.56         124.0139
   398.70         126.5792
   398.84         128.5859
   398.98         130.1316
   399.12         131.3044
   399.26         132.1753
   399.40         132.7958
   399.54         133.1985
   399.68         133.4067
   399.82         133.4411
   399.96         133.3209
   400.10         133.0731
   400.24         132.7357
   400.38         132.3505
   400.52         131.9565
   400.66         131.5860
   400.80         131.2617
   400.94         130.9955
   401.08         130.7882
   401.22         130.6190
   401.36         130.4418
   401.50         130.2055
   401.64         129.8764
   401.78         129.4473
   401.92         128.9367
   402.06         128.3846
   402.20         127.8394
   402.34         127.3456
   402.48         126.9448
   402.62         126.6769
   402.76         126.5722
   402.90         126.6397
   403.04         126.8584
   403.18         127.1842
   403.32         127.5644
   403.46         127.9451
   403.60         128.2781
   403.74         128.5289
   403.88         128.6804
   404.02         128.7432
   404.16         128.7493
   404.30         128.7319
   404.44         128.7184
   404.58         128.7257
   404.72         128.7510
   404.86         128.7724
   405.00         128.7621
   405.14         128.6988
   405.28         128.5715
   405.42         128.3733
   405.56         128.0977
   405.70         127.7467
   405.84         127.3312
   405.98         126.8669
   406.12         126.3686
   406.26         125.8484
   406.40         125.3145
   406.54         124.7673
   406.68         124.2021
   406.82         123.6088
   406.96         122.9833
   407.10         122.3286
   407.24         121.6456
   407.38         120.9322
   407.52         120.1891
   407.66         119.4235
   407.80         118.6401
   407.94         117.8296
   408.08         116.9581
   408.22         115.9646
   408.36         114.7676
   408.50         113.2700
   408.64         111.3713
   408.78         108.9730
   408.92         105.9903
   409.06         102.3891
   409.20         98.2176
   409.34         93.6156
   409.48         88.8085
   409.62         84.0900
   409.76         79.7866
   409.90         76.2179
   410.04         73.6594
   410.18         72.3112
   410.32         72.2741
   410.46         73.5334
   410.60         75.9648
   410.74         79.3590
   410.88         83.4489
   411.02         87.9350
   411.16         92.5134
   411.30         96.9058
   411.44         100.8871
   411.58         104.3094
   411.72         107.1091
   411.86         109.2919
   412.00         110.9169
   412.14         112.0833
   412.28         112.9023
   412.42         113.4695
   412.56         113.8623
   412.70         114.1472
   412.84         114.3796
   412.98         114.5927
   413.12         114.7962
   413.26         114.9908
   413.40         115.1819
   413.54         115.3772
   413.68         115.5779
   413.82         115.7825
   413.96         115.9947
   414.10         116.2196
   414.24         116.4564
   414.38         116.6998
   414.52         116.9470
   414.66         117.1936
   414.80         117.4255
   414.94         117.6165
   415.08         117.7428
   415.22         117.7977
   415.36         117.7876
   415.50         117.7170
   415.64         117.5897
   415.78         117.4203
   415.92         117.2357
   416.06         117.0623
   416.20         116.9105
   416.34         116.7718
   416.48         116.6300
   416.62         116.4689
   416.76         116.2743
   416.90         116.0378
   417.04         115.7598
   417.18         115.4503
   417.32         115.1251
   417.46         114.8040
   417.60         114.5076
   417.74         114.2502
   417.88         114.0374
   418.02         113.8620
   418.16         113.7100
   418.30         113.5760
   418.44         113.4623
   418.58         113.3688
   418.72         113.2949
   418.86         113.2378
   419.00         113.1959
   419.14         113.1734
   419.28         113.1788
   419.42         113.2142
   419.56         113.2692
   419.70         113.3286
   419.84         113.3829
   419.98         113.4268
   420.12         113.4576
   420.26         113.4724
   420.40         113.4658
   420.54         113.4309
   420.68         113.3634
   420.82         113.2632
   420.96         113.1292
   421.10         112.9505
   421.24         112.7167
   421.38         112.4267
   421.52         112.0846
   421.66         111.7029
   421.80         111.3036
   421.94         110.9115
   422.08         110.5476
   422.22         110.2271
   422.36         109.9626
   422.50         109.7617
   422.64         109.6224
   422.78         109.5373
   422.92         109.4944
   423.06         109.4765
   423.20         109.4673
   423.34         109.4551
   423.48         109.4341
   423.62         109.4005
   423.76         109.3492
   423.90         109.2740
   424.04         109.1644
   424.18         109.0128
   424.32         108.8200
   424.46         108.5893
   424.60         108.3249
   424.74         108.0306
   424.88         107.7108
   425.02         107.3758
   425.16         107.0417
   425.30         106.7287
   425.44         106.4540
   425.58         106.2237
   425.72         106.0366
   425.86         105.8848
   426.00         105.7592
   426.14         105.6538
   426.28         105.5607
   426.42         105.4720
   426.56         105.3833
   426.70         105.2982
   426.84         105.2301
   426.98         105.1907
   427.12         105.1806
   427.26         105.1942
   427.40         105.2247
   427.54         105.2726
   427.68         105.3445
   427.82         105.4461
   427.96         105.5796
   428.10         105.7401
   428.24         105.9169
   428.38         106.0978
   428.52         106.2671
   428.66         106.4100
   428.80         106.5118
   428.94         106.5554
   429.08         106.5295
   429.22         106.4361
   429.36         106.2871
   429.50         106.0967
   429.64         105.8785
   429.78         105.6453
   429.92         105.4128
   430.06         105.1983
   430.20         105.0124
   430.34         104.8481
   430.48         104.6828
   430.62         104.4900
   430.76         104.2431
   430.90         103.9172
   431.04         103.4945
   431.18         102.9679
   431.32         102.3380
   431.46         101.6107
   431.60         100.7963
   431.74         99.9069
   431.88         98.9474
   432.02         97.9044
   432.16         96.7498
   432.30         95.4462
   432.44         93.9458
   432.58         92.1895
   432.72         90.1116
   432.86         87.6559
   433.00         84.7986
   433.14         81.5743
   433.28         78.0866
   433.42         74.4983
   433.56         71.0119
   433.70         67.8535
   433.84         65.2480
   433.98         63.3870
   434.12         62.4090
   434.26         62.3915
   434.40         63.3393
   434.54         65.1769
   434.68         67.7613
   434.82         70.9010
   434.96         74.3743
   435.10         77.9527
   435.24         81.4272
   435.38         84.6319
   435.52         87.4610
   435.66         89.8756
   435.80         91.8948
   435.94         93.5715
   436.08         94.9658
   436.22         96.1326
   436.36         97.1183
   436.50         97.9568
   436.64         98.6684
   436.78         99.2674
   436.92         99.7638
   437.06         100.1578
   437.20         100.4379
   437.34         100.5842
   437.48         100.5730
   437.62         100.3890
   437.76         100.0375
   437.90         99.5479
   438.04         98.9622
   438.18         98.3274
   438.32         97.6954
   438.46         97.1173
   438.60         96.6372
   438.74         96.2878
   438.88         96.0862
   439.02         96.0327
   439.16         96.1144
   439.30         96.3090
   439.44         96.5850
   439.58         96.9045
   439.72         97.2246
   439.86         97.5015
   440.00         97.7027
   440.14         97.8162
   440.28         97.8473
   440.42         97.8117
   440.56         97.7249
   440.70         97.5983
   440.84         97.4430
   440.98         97.2741
   441.12         97.1032
   441.26         96.9329
   441.40         96.7585
   441.54         96.5728
   441.68         96.3735
   441.82         96.1671
   441.96         95.9600
   442.10         95.7508
   442.24         95.5350
   442.38         95.3085
   442.52         95.0707
   442.66         94.8299
   442.80         94.5986
   442.94         94.3910
   443.08         94.2217
   443.22         94.1002
   443.36         94.0267
   443.50         93.9927
   443.64         93.9841
   443.78         93.9877
   443.92         93.9988
   444.06         94.0196
   444.20         94.0493
   444.34         94.0801
   444.48         94.1025
   444.62         94.1110
   444.76         94.1080
   444.90         94.1005
   445.04         94.0960
   445.18         94.0996
   445.32         94.1113
   445.46         94.1227
   445.60         94.1187
   445.74         94.0812
   445.88         93.9834
   446.02         93.7972
   446.16         93.5096
   446.30         93.1294
   446.44         92.6854
   446.58         92.2142
   446.72         91.7453
   446.86         91.2989
   447.00         90.8902
   447.14         90.5328
   447.28         90.2428
   447.42         90.0346
   447.56         89.9190
   447.70         89.9000
   447.84         89.9738
   447.98         90.1329
   448.12         90.3653
   448.26         90.6567
   448.40         90.9895
   448.54         91.3407
   448.68         91.6874
   448.82         92.0076
   448.96         92.2747
   449.10         92.4665
   449.24         92.5674
   449.38         92.5663
   449.52         92.4639
   449.66         92.2763
   449.80         92.0354
   449.94         91.7817
   450.08         91.5471
   450.22         91.3466
   450.36         91.1860
   450.50         91.0683
   450.64         90.9944
   450.78         90.9607
   450.92         90.9565
   451.06         90.9662
   451.20         90.9756
   451.34         90.9755
   451.48         90.9618
   451.62         90.9378
   451.76         90.9192
   451.90         90.9124
   452.04         90.9073
   452.18         90.8939
   452.32         90.8664
   452.46         90.8231
   452.60         90.7610
   452.74         90.6747
   452.88         90.5630
   453.02         90.4306
   453.16         90.2809
   453.30         90.1184
   453.44         89.9503
   453.58         89.7830
   453.72         89.6283
   453.86         89.4982
   454.00         89.3934
   454.14         89.3044
   454.28         89.2223
   454.42         89.1392
   454.56         89.0405
   454.70         88.9185
   454.84         88.7819
   454.98         88.6441
