# File HD29883
# Wavelength [nm]    Normalized Amplitude
   349.70         8.5274
   349.84         8.4644
   349.98         8.4568
   350.12         8.4939
   350.26         8.5605
   350.40         8.6420
   350.54         8.7265
   350.68         8.8037
   350.82         8.8645
   350.96         8.9029
   351.10         8.9159
   351.24         8.9029
   351.38         8.8645
   351.52         8.8037
   351.66         8.7265
   351.80         8.6420
   351.94         8.5605
   352.08         8.4939
   352.22         8.4568
   352.36         8.4644
   352.50         8.5274
   352.64         8.6496
   352.78         8.8288
   352.92         9.0594
   353.06         9.3319
   353.20         9.6322
   353.34         9.9418
   353.48         10.2397
   353.62         10.5059
   353.76         10.7269
   353.90         10.8970
   354.04         11.0166
   354.18         11.0891
   354.32         11.1176
   354.46         11.1029
   354.60         11.0435
   354.74         10.9393
   354.88         10.7961
   355.02         10.6241
   355.16         10.4328
   355.30         10.2280
   355.44         10.0112
   355.58         9.7819
   355.72         9.5391
   355.86         9.2806
   356.00         9.0036
   356.14         8.7084
   356.28         8.4002
   356.42         8.0885
   356.56         7.7831
   356.70         7.4896
   356.84         7.2110
   356.98         6.9490
   357.12         6.7055
   357.26         6.4813
   357.40         6.2777
   357.54         6.0955
   357.68         5.9349
   357.82         5.7970
   357.96         5.6875
   358.10         5.6178
   358.24         5.6025
   358.38         5.6567
   358.52         5.7954
   358.66         6.0314
   358.80         6.3691
   358.94         6.7992
   359.08         7.2958
   359.22         7.8189
   359.36         8.3220
   359.50         8.7612
   359.64         9.1012
   359.78         9.3181
   359.92         9.4018
   360.06         9.3586
   360.20         9.2100
   360.34         8.9881
   360.48         8.7287
   360.62         8.4629
   360.76         8.2140
   360.90         7.9994
   361.04         7.8343
   361.18         7.7315
   361.32         7.6985
   361.46         7.7368
   361.60         7.8424
   361.74         8.0040
   361.88         8.2032
   362.02         8.4171
   362.16         8.6242
   362.30         8.8084
   362.44         8.9619
   362.58         9.0853
   362.72         9.1842
   362.86         9.2662
   363.00         9.3367
   363.14         9.3976
   363.28         9.4485
   363.42         9.4889
   363.56         9.5198
   363.70         9.5424
   363.84         9.5569
   363.98         9.5637
   364.12         9.5655
   364.26         9.5665
   364.40         9.5726
   364.54         9.5948
   364.68         9.6522
   364.82         9.7696
   364.96         9.9690
   365.10         10.2608
   365.24         10.6394
   365.38         11.0838
   365.52         11.5619
   365.66         12.0355
   365.80         12.4646
   365.94         12.8153
   366.08         13.0660
   366.22         13.2120
   366.36         13.2634
   366.50         13.2387
   366.64         13.1581
   366.78         13.0373
   366.92         12.8861
   367.06         12.7100
   367.20         12.5141
   367.34         12.3021
   367.48         12.0751
   367.62         11.8315
   367.76         11.5723
   367.90         11.3086
   368.04         11.0617
   368.18         10.8561
   368.32         10.7115
   368.46         10.6391
   368.60         10.6444
   368.74         10.7292
   368.88         10.8893
   369.02         11.1102
   369.16         11.3664
   369.30         11.6242
   369.44         11.8461
   369.58         11.9975
   369.72         12.0539
   369.86         12.0041
   370.00         11.8538
   370.14         11.6259
   370.28         11.3570
   370.42         11.0891
   370.56         10.8569
   370.70         10.6769
   370.84         10.5439
   370.98         10.4390
   371.12         10.3404
   371.26         10.2323
   371.40         10.1061
   371.54         9.9566
   371.68         9.7784
   371.82         9.5675
   371.96         9.3252
   372.10         9.0586
   372.24         8.7789
   372.38         8.4983
   372.52         8.2276
   372.66         7.9756
   372.80         7.7472
   372.94         7.5414
   373.08         7.3526
   373.22         7.1725
   373.36         6.9939
   373.50         6.8142
   373.64         6.6376
   373.78         6.4743
   373.92         6.3375
   374.06         6.2403
   374.20         6.1931
   374.34         6.2035
   374.48         6.2751
   374.62         6.4032
   374.76         6.5752
   374.90         6.7764
   375.04         6.9963
   375.18         7.2285
   375.32         7.4665
   375.46         7.7014
   375.60         7.9223
   375.74         8.1195
   375.88         8.2897
   376.02         8.4392
   376.16         8.5836
   376.30         8.7447
   376.44         8.9454
   376.58         9.2046
   376.72         9.5340
   376.86         9.9344
   377.00         10.3923
   377.14         10.8829
   377.28         11.3746
   377.42         11.8342
   377.56         12.2292
   377.70         12.5294
   377.84         12.7109
   377.98         12.7621
   378.12         12.6863
   378.26         12.4981
   378.40         12.2185
   378.54         11.8698
   378.68         11.4727
   378.82         11.0478
   378.96         10.6183
   379.10         10.2126
   379.24         9.8618
   379.38         9.5929
   379.52         9.4219
   379.66         9.3509
   379.80         9.3713
   379.94         9.4659
   380.08         9.6098
   380.22         9.7720
   380.36         9.9205
   380.50         10.0265
   380.64         10.0663
   380.78         10.0201
   380.92         9.8734
   381.06         9.6208
   381.20         9.2696
   381.34         8.8380
   381.48         8.3513
   381.62         7.8388
   381.76         7.3292
   381.90         6.8459
   382.04         6.4048
   382.18         6.0162
   382.32         5.6877
   382.46         5.4244
   382.60         5.2251
   382.74         5.0811
   382.88         4.9817
   383.02         4.9218
   383.16         4.9047
   383.30         4.9391
   383.44         5.0329
   383.58         5.1904
   383.72         5.4107
   383.86         5.6862
   384.00         6.0033
   384.14         6.3461
   384.28         6.6971
   384.42         7.0365
   384.56         7.3413
   384.70         7.5888
   384.84         7.7604
   384.98         7.8475
   385.12         7.8542
   385.26         7.7957
   385.40         7.6954
   385.54         7.5816
   385.68         7.4827
   385.82         7.4194
   385.96         7.4006
   386.10         7.4248
   386.24         7.4856
   386.38         7.5751
   386.52         7.6841
   386.66         7.8007
   386.80         7.9118
   386.94         8.0049
   387.08         8.0720
   387.22         8.1111
   387.36         8.1247
   387.50         8.1182
   387.64         8.0994
   387.78         8.0784
   387.92         8.0666
   388.06         8.0754
   388.20         8.1138
   388.34         8.1866
   388.48         8.2950
   388.62         8.4382
   388.76         8.6138
   388.90         8.8165
   389.04         9.0362
   389.18         9.2572
   389.32         9.4629
   389.46         9.6413
   389.60         9.7881
   389.74         9.9068
   389.88         10.0067
   390.02         10.1022
   390.16         10.2106
   390.30         10.3491
   390.44         10.5293
   390.58         10.7512
   390.72         10.9991
   390.86         11.2443
   391.00         11.4532
   391.14         11.5956
   391.28         11.6482
   391.42         11.5952
   391.56         11.4276
   391.70         11.1431
   391.84         10.7460
   391.98         10.2485
   392.12         9.6713
   392.26         9.0412
   392.40         8.3885
   392.54         7.7442
   392.68         7.1383
   392.82         6.5982
   392.96         6.1459
   393.10         5.7973
   393.24         5.5627
   393.38         5.4494
   393.52         5.4632
   393.66         5.6077
   393.80         5.8812
   393.94         6.2732
   394.08         6.7633
   394.22         7.3241
   394.36         7.9242
   394.50         8.5312
   394.64         9.1131
   394.78         9.6405
   394.92         10.0858
   395.06         10.4244
   395.20         10.6364
   395.34         10.7072
   395.48         10.6274
   395.62         10.3946
   395.76         10.0179
   395.90         9.5220
   396.04         8.9467
   396.18         8.3420
   396.32         7.7621
   396.46         7.2610
   396.60         6.8882
   396.74         6.6842
   396.88         6.6772
   397.02         6.8784
   397.16         7.2802
   397.30         7.8594
   397.44         8.5806
   397.58         9.4008
   397.72         10.2744
   397.86         11.1581
   398.00         12.0130
   398.14         12.8074
   398.28         13.5190
   398.42         14.1362
   398.56         14.6565
   398.70         15.0849
   398.84         15.4328
   398.98         15.7153
   399.12         15.9469
   399.26         16.1373
   399.40         16.2899
   399.54         16.4052
   399.68         16.4871
   399.82         16.5444
   399.96         16.5893
   400.10         16.6355
   400.24         16.6955
   400.38         16.7786
   400.52         16.8905
   400.66         17.0327
   400.80         17.2024
   400.94         17.3935
   401.08         17.5976
   401.22         17.8052
   401.36         18.0073
   401.50         18.1951
   401.64         18.3578
   401.78         18.4796
   401.92         18.5406
   402.06         18.5239
   402.20         18.4223
   402.34         18.2421
   402.48         18.0013
   402.62         17.7271
   402.76         17.4507
   402.90         17.2006
   403.04         16.9968
   403.18         16.8455
   403.32         16.7381
   403.46         16.6570
   403.60         16.5872
   403.74         16.5236
   403.88         16.4694
   404.02         16.4292
   404.16         16.4051
   404.30         16.3945
   404.44         16.3924
   404.58         16.3967
   404.72         16.4122
   404.86         16.4475
   405.00         16.5056
   405.14         16.5764
   405.28         16.6381
   405.42         16.6662
   405.56         16.6408
   405.70         16.5522
   405.84         16.4009
   405.98         16.1987
   406.12         15.9723
   406.26         15.7574
   406.40         15.5844
   406.54         15.4689
   406.68         15.4150
   406.82         15.4248
   406.96         15.5015
   407.10         15.6462
   407.24         15.8552
   407.38         16.1215
   407.52         16.4374
   407.66         16.7964
   407.80         17.1949
   407.94         17.6302
   408.08         18.0954
   408.22         18.5744
   408.36         19.0401
   408.50         19.4583
   408.64         19.7958
   408.78         20.0269
   408.92         20.1338
   409.06         20.1074
   409.20         19.9531
   409.34         19.6935
   409.48         19.3637
   409.62         19.0026
   409.76         18.6464
   409.90         18.3275
   410.04         18.0759
   410.18         17.9160
   410.32         17.8614
   410.46         17.9114
   410.60         18.0522
   410.74         18.2609
   410.88         18.5094
   411.02         18.7687
   411.16         19.0144
   411.30         19.2303
   411.44         19.4075
   411.58         19.5423
   411.72         19.6349
   411.86         19.6854
   412.00         19.6899
   412.14         19.6416
   412.28         19.5358
   412.42         19.3764
   412.56         19.1786
   412.70         18.9660
   412.84         18.7626
   412.98         18.5835
   413.12         18.4312
   413.26         18.3009
   413.40         18.1888
   413.54         18.0957
   413.68         18.0245
   413.82         17.9766
   413.96         17.9492
   414.10         17.9348
   414.24         17.9234
   414.38         17.9060
   414.52         17.8777
   414.66         17.8415
   414.80         17.8108
   414.94         17.8062
   415.08         17.8478
   415.22         17.9461
   415.36         18.0973
   415.50         18.2859
   415.64         18.4913
   415.78         18.6953
   415.92         18.8851
   416.06         19.0495
   416.20         19.1744
   416.34         19.2444
   416.48         19.2478
   416.62         19.1812
   416.76         19.0510
   416.90         18.8722
   417.04         18.6644
   417.18         18.4501
   417.32         18.2513
   417.46         18.0841
   417.60         17.9546
   417.74         17.8608
   417.88         17.7964
   418.02         17.7556
   418.16         17.7355
   418.30         17.7345
   418.44         17.7480
   418.58         17.7649
   418.72         17.7715
   418.86         17.7562
   419.00         17.7130
   419.14         17.6419
   419.28         17.5490
   419.42         17.4471
   419.56         17.3520
   419.70         17.2800
   419.84         17.2455
   419.98         17.2613
   420.12         17.3367
   420.26         17.4766
   420.40         17.6780
   420.54         17.9294
   420.68         18.2115
   420.82         18.5004
   420.96         18.7682
   421.10         18.9829
   421.24         19.1110
   421.38         19.1225
   421.52         18.9952
   421.66         18.7232
   421.80         18.3238
   421.94         17.8353
   422.08         17.3065
   422.22         16.7840
   422.36         16.3067
   422.50         15.9063
   422.64         15.6078
   422.78         15.4288
   422.92         15.3780
   423.06         15.4563
   423.20         15.6586
   423.34         15.9719
   423.48         16.3695
   423.62         16.8096
   423.76         17.2399
   423.90         17.6103
   424.04         17.8848
   424.18         18.0483
   424.32         18.1052
   424.46         18.0726
   424.60         17.9707
   424.74         17.8150
   424.88         17.6160
   425.02         17.3875
   425.16         17.1540
   425.30         16.9490
   425.44         16.8058
   425.58         16.7482
   425.72         16.7824
   425.86         16.8930
   426.00         17.0446
   426.14         17.1905
   426.28         17.2865
   426.42         17.3049
   426.56         17.2421
   426.70         17.1154
   426.84         16.9533
   426.98         16.7863
   427.12         16.6431
   427.26         16.5472
   427.40         16.5134
   427.54         16.5475
   427.68         16.6474
   427.82         16.8001
   427.96         16.9800
   428.10         17.1541
   428.24         17.2902
   428.38         17.3617
   428.52         17.3522
   428.66         17.2570
   428.80         17.0830
   428.94         16.8459
   429.08         16.5657
   429.22         16.2606
   429.36         15.9411
   429.50         15.6088
   429.64         15.2602
   429.78         14.8933
   429.92         14.5127
   430.06         14.1315
   430.20         13.7724
   430.34         13.4691
   430.48         13.2668
   430.62         13.2155
   430.76         13.3571
   430.90         13.7112
   431.04         14.2681
   431.18         14.9884
   431.32         15.8079
   431.46         16.6504
   431.60         17.4458
   431.74         18.1443
   431.88         18.7171
   432.02         19.1535
   432.16         19.4598
   432.30         19.6588
   432.44         19.7842
   432.58         19.8721
   432.72         19.9513
   432.86         20.0387
   433.00         20.1401
   433.14         20.2533
   433.28         20.3681
   433.42         20.4696
   433.56         20.5434
   433.70         20.5813
   433.84         20.5827
   433.98         20.5539
   434.12         20.5089
   434.26         20.4685
   434.40         20.4536
   434.54         20.4767
   434.68         20.5391
   434.82         20.6336
   434.96         20.7482
   435.10         20.8717
   435.24         20.9970
   435.38         21.1248
   435.52         21.2634
   435.66         21.4230
   435.80         21.6096
   435.94         21.8203
   436.08         22.0415
   436.22         22.2503
   436.36         22.4170
   436.50         22.5118
   436.64         22.5134
   436.78         22.4159
   436.92         22.2260
   437.06         21.9517
   437.20         21.5955
   437.34         21.1590
   437.48         20.6540
   437.62         20.1069
   437.76         19.5523
   437.90         19.0257
   438.04         18.5601
   438.18         18.1838
   438.32         17.9195
   438.46         17.7844
   438.60         17.7888
   438.74         17.9326
   438.88         18.2011
   439.02         18.5658
   439.16         18.9861
   439.30         19.4113
   439.44         19.7853
   439.58         20.0593
   439.72         20.2048
   439.86         20.2241
   440.00         20.1495
   440.14         20.0282
   440.28         19.9021
   440.42         19.7997
   440.56         19.7420
   440.70         19.7499
   440.84         19.8415
   440.98         20.0247
   441.12         20.2923
   441.26         20.6230
   441.40         20.9850
   441.54         21.3431
   441.68         21.6676
   441.82         21.9384
   441.96         22.1461
   442.10         22.2929
   442.24         22.3874
   442.38         22.4382
   442.52         22.4521
   442.66         22.4376
   442.80         22.4039
   442.94         22.3600
   443.08         22.3178
   443.22         22.2923
   443.36         22.2989
   443.50         22.3467
   443.64         22.4356
   443.78         22.5611
   443.92         22.7176
   444.06         22.8956
   444.20         23.0783
   444.34         23.2407
   444.48         23.3534
   444.62         23.3897
   444.76         23.3322
   444.90         23.1763
   445.04         22.9336
   445.18         22.6315
   445.32         22.3058
   445.46         21.9907
   445.60         21.7153
   445.74         21.5054
   445.88         21.3846
   446.02         21.3722
   446.16         21.4773
   446.30         21.6951
   446.44         22.0086
   446.58         22.3921
   446.72         22.8129
   446.86         23.2331
   447.00         23.6179
   447.14         23.9434
   447.28         24.2004
   447.42         24.3922
   447.56         24.5285
   447.70         24.6204
   447.84         24.6777
   447.98         24.7081
   448.12         24.7167
   448.26         24.7063
   448.40         24.6790
   448.54         24.6413
   448.68         24.6042
   448.82         24.5789
   448.96         24.5731
   449.10         24.5935
   449.24         24.6460
   449.38         24.7348
   449.52         24.8622
   449.66         25.0316
   449.80         25.2450
   449.94         25.4983
   450.08         25.7766
   450.22         26.0553
   450.36         26.3083
   450.50         26.5143
   450.64         26.6586
   450.78         26.7353
   450.92         26.7473
   451.06         26.7047
   451.20         26.6197
   451.34         26.5004
   451.48         26.3458
   451.62         26.1502
   451.76         25.9096
   451.90         25.6242
   452.04         25.2969
   452.18         24.9323
   452.32         24.5390
   452.46         24.1356
   452.60         23.7507
   452.74         23.4158
   452.88         23.1592
   453.02         23.0043
   453.16         22.9657
   453.30         23.0456
   453.44         23.2325
   453.58         23.5014
   453.72         23.8168
   453.86         24.1415
   454.00         24.4427
   454.14         24.6955
   454.28         24.8867
   454.42         25.0169
   454.56         25.0974
   454.70         25.1460
   454.84         25.1839
   454.98         25.2328
   455.12         25.3091
   455.26         25.4175
   455.40         25.5515
   455.54         25.7008
   455.68         25.8568
   455.82         26.0084
   455.96         26.1427
   456.10         26.2504
   456.24         26.3291
   456.38         26.3822
   456.52         26.4152
   456.66         26.4302
   456.80         26.4252
   456.94         26.3985
   457.08         26.3523
   457.22         26.2891
   457.36         26.2096
   457.50         26.1152
   457.64         26.0101
   457.78         25.9022
   457.92         25.8011
   458.06         25.7173
   458.20         25.6583
