# File HD30584
# Wavelength [nm]    Normalized Amplitude
   349.70         73.8325
   349.84         73.8491
   349.98         74.0195
   350.12         74.3399
   350.26         74.7894
   350.40         75.3159
   350.54         75.8449
   350.68         76.3089
   350.82         76.6634
   350.96         76.8830
   351.10         76.9569
   351.24         76.8830
   351.38         76.6634
   351.52         76.3089
   351.66         75.8449
   351.80         75.3159
   351.94         74.7894
   352.08         74.3399
   352.22         74.0195
   352.36         73.8491
   352.50         73.8325
   352.64         73.9753
   352.78         74.2772
   352.92         74.7199
   353.06         75.2737
   353.20         75.9032
   353.34         76.5704
   353.48         77.2350
   353.62         77.8532
   353.76         78.3796
   353.90         78.7757
   354.04         79.0235
   354.18         79.1182
   354.32         79.0566
   354.46         78.8416
   354.60         78.4822
   354.74         77.9915
   354.88         77.3955
   355.02         76.7393
   355.16         76.0748
   355.30         75.4495
   355.44         74.9018
   355.58         74.4497
   355.72         74.0946
   355.86         73.8351
   356.00         73.6683
   356.14         73.5857
   356.28         73.5758
   356.42         73.6305
   356.56         73.7407
   356.70         73.8927
   356.84         74.0674
   356.98         74.2419
   357.12         74.3962
   357.26         74.5202
   357.40         74.6190
   357.54         74.7031
   357.68         74.7774
   357.82         74.8384
   357.96         74.8777
   358.10         74.8851
   358.24         74.8517
   358.38         74.7727
   358.52         74.6510
   358.66         74.4995
   358.80         74.3399
   358.94         74.1971
   359.08         74.0848
   359.22         73.9956
   359.36         73.9118
   359.50         73.8215
   359.64         73.7202
   359.78         73.6121
   359.92         73.5116
   360.06         73.4296
   360.20         73.3614
   360.34         73.3032
   360.48         73.2558
   360.62         73.2180
   360.76         73.1885
   360.90         73.1631
   361.04         73.1365
   361.18         73.1132
   361.32         73.1017
   361.46         73.1037
   361.60         73.1129
   361.74         73.1118
   361.88         73.0761
   362.02         72.9865
   362.16         72.8374
   362.30         72.6386
   362.44         72.4120
   362.58         72.1801
   362.72         71.9596
   362.86         71.7730
   363.00         71.6463
   363.14         71.5876
   363.28         71.5904
   363.42         71.6482
   363.56         71.7537
   363.70         71.8929
   363.84         72.0482
   363.98         72.1974
   364.12         72.3111
   364.26         72.3555
   364.40         72.3036
   364.54         72.1460
   364.68         71.8955
   364.82         71.5833
   364.96         71.2467
   365.10         70.9177
   365.24         70.6232
   365.38         70.3905
   365.52         70.2475
   365.66         70.2126
   365.80         70.2916
   365.94         70.4846
   366.08         70.7823
   366.22         71.1619
   366.36         71.5926
   366.50         72.0513
   366.64         72.5138
   366.78         72.9392
   366.92         73.2797
   367.06         73.4957
   367.20         73.5642
   367.34         73.4802
   367.48         73.2542
   367.62         72.9202
   367.76         72.5345
   367.90         72.1516
   368.04         71.8127
   368.18         71.5554
   368.32         71.4072
   368.46         71.3694
   368.60         71.4247
   368.74         71.5487
   368.88         71.7113
   369.02         71.8760
   369.16         72.0014
   369.30         72.0458
   369.44         71.9892
   369.58         71.8480
   369.72         71.6535
   369.86         71.4332
   370.00         71.2091
   370.14         71.0048
   370.28         70.8588
   370.42         70.8242
   370.56         70.9521
   370.70         71.2679
   370.84         71.7529
   370.98         72.3461
   371.12         72.9738
   371.26         73.5905
   371.40         74.1939
   371.54         74.8226
   371.68         75.5286
   371.82         76.3419
   371.96         77.2535
   372.10         78.2084
   372.24         79.1093
   372.38         79.8474
   372.52         80.3592
   372.66         80.6608
   372.80         80.8430
   372.94         81.0426
   373.08         81.3974
   373.22         81.9923
   373.36         82.8300
   373.50         83.8533
   373.64         84.9729
   373.78         86.0730
   373.92         87.0274
   374.06         87.7327
   374.20         88.1255
   374.34         88.1840
   374.48         87.9511
   374.62         87.5551
   374.76         87.1941
   374.90         87.1069
   375.04         87.5324
   375.18         88.6441
   375.32         90.4888
   375.46         92.9524
   375.60         95.7519
   375.74         98.4742
   375.88         100.6611
   376.02         101.9202
   376.16         102.0333
   376.30         101.0078
   376.44         99.0719
   376.58         96.6413
   376.72         94.2431
   376.86         92.3987
   377.00         91.5326
   377.14         91.9252
   377.28         93.6904
   377.42         96.7778
   377.56         100.9884
   377.70         105.9868
   377.84         111.3270
   377.98         116.5081
   378.12         121.0325
   378.26         124.4546
   378.40         126.4253
   378.54         126.7359
   378.68         125.3606
   378.82         122.4652
   378.96         118.3794
   379.10         113.5530
   379.24         108.5078
   379.38         103.7786
   379.52         99.8560
   379.66         97.1567
   379.80         95.9962
   379.94         96.5469
   380.08         98.8145
   380.22         102.6394
   380.36         107.7218
   380.50         113.6635
   380.64         120.0196
   380.78         126.3449
   380.92         132.2304
   381.06         137.3432
   381.20         141.4707
   381.34         144.5346
   381.48         146.5569
   381.62         147.5953
   381.76         147.6886
   381.90         146.8338
   382.04         144.9912
   382.18         142.1148
   382.32         138.1923
   382.46         133.2804
   382.60         127.5355
   382.74         121.2307
   382.88         114.7437
   383.02         108.5120
   383.16         102.9824
   383.30         98.5714
   383.44         95.6239
   383.58         94.3706
   383.72         94.9055
   383.86         97.1752
   384.00         100.9807
   384.14         105.9934
   384.28         111.7808
   384.42         117.8679
   384.56         123.8191
   384.70         129.2959
   384.84         134.0735
   384.98         138.0326
   385.12         141.1523
   385.26         143.4953
   385.40         145.1810
   385.54         146.3524
   385.68         147.1525
   385.82         147.7113
   385.96         148.1297
   386.10         148.4658
   386.24         148.7288
   386.38         148.8882
   386.52         148.8918
   386.66         148.6788
   386.80         148.1817
   386.94         147.3257
   387.08         146.0340
   387.22         144.2291
   387.36         141.8127
   387.50         138.6633
   387.64         134.6818
   387.78         129.8557
   387.92         124.2906
   388.06         118.2047
   388.20         111.9103
   388.34         105.7863
   388.48         100.2331
   388.62         95.6301
   388.76         92.3078
   388.90         90.5128
   389.04         90.3762
   389.18         91.9002
   389.32         94.9526
   389.46         99.2750
   389.60         104.5208
   389.74         110.2957
   389.88         116.1904
   390.02         121.8255
   390.16         126.9013
   390.30         131.2487
   390.44         134.8322
   390.58         137.7004
   390.72         139.9432
   390.86         141.6639
   391.00         142.9632
   391.14         143.9341
   391.28         144.6583
   391.42         145.2011
   391.56         145.6083
   391.70         145.9094
   391.84         146.1171
   391.98         146.2220
   392.12         146.2019
   392.26         146.0429
   392.40         145.7432
   392.54         145.3163
   392.68         144.7991
   392.82         144.2506
   392.96         143.7387
   393.10         143.3105
   393.24         142.9932
   393.38         142.8108
   393.52         142.7766
   393.66         142.8885
   393.80         143.1198
   393.94         143.4172
   394.08         143.7138
   394.22         143.9338
   394.36         143.9963
   394.50         143.8229
   394.64         143.3503
   394.78         142.5416
   394.92         141.3767
   395.06         139.8365
   395.20         137.8940
   395.34         135.5055
   395.48         132.6023
   395.62         129.0923
   395.76         124.8999
   395.90         120.0224
   396.04         114.5594
   396.18         108.7182
   396.32         102.7995
   396.46         97.1662
   396.60         92.2023
   396.74         88.2637
   396.88         85.6398
   397.02         84.5361
   397.16         85.0491
   397.30         87.1449
   397.44         90.6586
   397.58         95.3100
   397.72         100.7379
   397.86         106.5416
   398.00         112.3234
   398.14         117.7328
   398.28         122.5152
   398.42         126.5404
   398.56         129.7893
   398.70         132.3159
   398.84         134.2164
   398.98         135.6017
   399.12         136.5803
   399.26         137.2517
   399.40         137.7077
   399.54         138.0334
   399.68         138.3045
   399.82         138.5744
   399.96         138.8649
   400.10         139.1765
   400.24         139.5006
   400.38         139.8206
   400.52         140.1133
   400.66         140.3499
   400.80         140.4964
   400.94         140.5242
   401.08         140.4174
   401.22         140.1780
   401.36         139.8325
   401.50         139.4267
   401.64         139.0040
   401.78         138.5971
   401.92         138.2340
   402.06         137.9415
   402.20         137.7348
   402.34         137.6098
   402.48         137.5514
   402.62         137.5469
   402.76         137.5929
   402.90         137.6837
   403.04         137.7956
   403.18         137.8970
   403.32         137.9621
   403.46         137.9708
   403.60         137.9121
   403.74         137.7911
   403.88         137.6263
   404.02         137.4375
   404.16         137.2301
   404.30         136.9957
   404.44         136.7221
   404.58         136.4026
   404.72         136.0363
   404.86         135.6216
   405.00         135.1616
   405.14         134.6727
   405.28         134.1775
   405.42         133.6923
   405.56         133.2291
   405.70         132.8030
   405.84         132.4348
   405.98         132.1413
   406.12         131.9262
   406.26         131.7827
   406.40         131.6908
   406.54         131.6126
   406.68         131.4981
   406.82         131.3089
   406.96         131.0300
   407.10         130.6549
   407.24         130.1766
   407.38         129.5887
   407.52         128.8896
   407.66         128.0897
   407.80         127.2069
   407.94         126.2485
   408.08         125.1939
   408.22         123.9899
   408.36         122.5565
   408.50         120.7935
   408.64         118.5882
   408.78         115.8264
   408.92         112.4167
   409.06         108.3325
   409.20         103.6517
   409.34         98.5691
   409.48         93.3700
   409.62         88.3850
   409.76         83.9551
   409.90         80.4117
   410.04         78.0380
   410.18         77.0305
   410.32         77.4710
   410.46         79.3036
   410.60         82.3399
   410.74         86.2953
   410.88         90.8306
   411.02         95.5901
   411.16         100.2379
   411.30         104.4880
   411.44         108.1291
   411.58         111.0463
   411.72         113.2254
   411.86         114.7333
   412.00         115.6859
   412.14         116.2203
   412.28         116.4715
   412.42         116.5620
   412.56         116.5967
   412.70         116.6608
   412.84         116.8166
   412.98         117.0964
   413.12         117.5037
   413.26         118.0279
   413.40         118.6507
   413.54         119.3390
   413.68         120.0435
   413.82         120.7145
   413.96         121.3152
   414.10         121.8207
   414.24         122.2183
   414.38         122.5115
   414.52         122.7184
   414.66         122.8633
   414.80         122.9673
   414.94         123.0419
   415.08         123.0926
   415.22         123.1203
   415.36         123.1186
   415.50         123.0735
   415.64         122.9761
   415.78         122.8348
   415.92         122.6611
   416.06         122.4556
   416.20         122.2094
   416.34         121.9203
   416.48         121.6010
   416.62         121.2615
   416.76         120.8943
   416.90         120.4896
   417.04         120.0503
   417.18         119.5882
   417.32         119.1221
   417.46         118.6753
   417.60         118.2707
   417.74         117.9222
   417.88         117.6354
   418.02         117.4130
   418.16         117.2578
   418.30         117.1745
   418.44         117.1586
   418.58         117.1864
   418.72         117.2311
   418.86         117.2775
   419.00         117.3163
   419.14         117.3339
   419.28         117.3110
   419.42         117.2341
   419.56         117.1031
   419.70         116.9240
   419.84         116.7080
   419.98         116.4732
   420.12         116.2387
   420.26         116.0216
   420.40         115.8368
   420.54         115.7003
   420.68         115.6262
   420.82         115.6234
   420.96         115.6930
   421.10         115.8234
   421.24         115.9959
   421.38         116.1886
   421.52         116.3753
   421.66         116.5267
   421.80         116.6180
   421.94         116.6320
   422.08         116.5559
   422.22         116.3818
   422.36         116.1124
   422.50         115.7649
   422.64         115.3641
   422.78         114.9360
   422.92         114.5073
   423.06         114.1038
   423.20         113.7493
   423.34         113.4579
   423.48         113.2302
   423.62         113.0596
   423.76         112.9365
   423.90         112.8472
   424.04         112.7685
   424.18         112.6748
   424.32         112.5512
   424.46         112.3967
   424.60         112.2180
   424.74         112.0244
   424.88         111.8271
   425.02         111.6414
   425.16         111.4800
   425.30         111.3473
   425.44         111.2400
   425.58         111.1528
   425.72         111.0795
   425.86         111.0106
   426.00         110.9317
   426.14         110.8311
   426.28         110.7093
   426.42         110.5756
   426.56         110.4379
   426.70         110.3034
   426.84         110.1817
   426.98         110.0836
   427.12         110.0180
   427.26         109.9856
   427.40         109.9776
   427.54         109.9816
   427.68         109.9871
   427.82         109.9868
   427.96         109.9719
   428.10         109.9321
   428.24         109.8640
   428.38         109.7697
   428.52         109.6518
   428.66         109.5116
   428.80         109.3502
   428.94         109.1688
   429.08         108.9711
   429.22         108.7664
   429.36         108.5674
   429.50         108.3864
   429.64         108.2338
   429.78         108.1144
   429.92         108.0212
   430.06         107.9411
   430.20         107.8609
   430.34         107.7674
   430.48         107.6473
   430.62         107.4860
   430.76         107.2728
   430.90         107.0025
   431.04         106.6728
   431.18         106.2870
   431.32         105.8515
   431.46         105.3712
   431.60         104.8510
   431.74         104.2942
   431.88         103.6899
   432.02         103.0048
   432.16         102.1891
   432.30         101.1793
   432.44         99.8950
   432.58         98.2443
   432.72         96.1373
   432.86         93.5059
   433.00         90.3352
   433.14         86.6874
   433.28         82.7073
   433.42         78.6128
   433.56         74.6680
   433.70         71.1530
   433.84         68.3303
   433.98         66.4080
   434.12         65.5202
   434.26         65.7223
   434.40         66.9825
   434.54         69.1846
   434.68         72.1460
   434.82         75.6352
   434.96         79.3951
   435.10         83.1751
   435.24         86.7629
   435.38         90.0074
   435.52         92.8288
   435.66         95.2151
   435.80         97.2012
   435.94         98.8415
   436.08         100.1878
   436.22         101.2799
   436.36         102.1480
   436.50         102.8142
   436.64         103.2941
   436.78         103.6053
   436.92         103.7736
   437.06         103.8282
   437.20         103.7930
   437.34         103.6847
   437.48         103.5212
   437.62         103.3247
   437.76         103.1197
   437.90         102.9297
   438.04         102.7749
   438.18         102.6681
   438.32         102.6163
   438.46         102.6276
   438.60         102.7073
   438.74         102.8514
   438.88         103.0468
   439.02         103.2686
   439.16         103.4828
   439.30         103.6578
   439.44         103.7728
   439.58         103.8185
   439.72         103.7883
   439.86         103.6755
   440.00         103.4887
   440.14         103.2524
   440.28         102.9892
   440.42         102.7104
   440.56         102.4186
   440.70         102.1163
   440.84         101.8115
   440.98         101.5106
   441.12         101.2136
   441.26         100.9157
   441.40         100.6105
   441.54         100.2989
   441.68         99.9904
   441.82         99.7038
   441.96         99.4600
   442.10         99.2737
   442.24         99.1523
   442.38         99.0925
   442.52         99.0840
   442.66         99.1159
   442.80         99.1767
   442.94         99.2517
   443.08         99.3235
   443.22         99.3772
   443.36         99.3969
   443.50         99.3650
   443.64         99.2672
   443.78         99.1053
   443.92         98.9015
   444.06         98.6825
   444.20         98.4712
   444.34         98.2831
   444.48         98.1280
   444.62         98.0124
   444.76         97.9411
   444.90         97.9136
   445.04         97.9223
   445.18         97.9594
   445.32         98.0203
   445.46         98.0977
   445.60         98.1749
   445.74         98.2312
   445.88         98.2532
   446.02         98.2372
   446.16         98.1878
   446.30         98.1146
   446.44         98.0325
   446.58         97.9545
   446.72         97.8770
   446.86         97.7801
   447.00         97.6419
   447.14         97.4496
   447.28         97.2036
   447.42         96.9175
   447.56         96.6133
   447.70         96.3137
   447.84         96.0401
   447.98         95.8044
   448.12         95.6122
   448.26         95.4725
   448.40         95.3951
   448.54         95.3825
   448.68         95.4258
   448.82         95.5070
   448.96         95.6066
   449.10         95.7053
   449.24         95.7849
   449.38         95.8295
   449.52         95.8285
   449.66         95.7835
   449.80         95.7085
   449.94         95.6207
   450.08         95.5296
   450.22         95.4335
   450.36         95.3311
   450.50         95.2281
   450.64         95.1263
   450.78         95.0248
   450.92         94.9236
   451.06         94.8178
   451.20         94.7030
   451.34         94.5834
   451.48         94.4697
   451.62         94.3796
   451.76         94.3369
   451.90         94.3552
   452.04         94.4274
   452.18         94.5343
   452.32         94.6597
   452.46         94.7927
   452.60         94.9201
   452.74         95.0237
   452.88         95.0835
   453.02         95.0886
   453.16         95.0351
   453.30         94.9188
   453.44         94.7401
   453.58         94.5078
   453.72         94.2329
   453.86         93.9297
   454.00         93.6173
   454.14         93.3090
   454.28         93.0079
   454.42         92.7037
   454.56         92.3777
   454.70         92.0232
