# File HD31084
# Wavelength [nm]    Normalized Amplitude
   349.70         9.3892
   349.84         9.3572
   349.98         9.3495
   350.12         9.3603
   350.26         9.3836
   350.40         9.4150
   350.54         9.4513
   350.68         9.4901
   350.82         9.5269
   350.96         9.5540
   351.10         9.5640
   351.24         9.5540
   351.38         9.5269
   351.52         9.4901
   351.66         9.4513
   351.80         9.4150
   351.94         9.3836
   352.08         9.3603
   352.22         9.3495
   352.36         9.3572
   352.50         9.3892
   352.64         9.4499
   352.78         9.5409
   352.92         9.6606
   353.06         9.8027
   353.20         9.9540
   353.34         10.0983
   353.48         10.2226
   353.62         10.3204
   353.76         10.3904
   353.90         10.4342
   354.04         10.4550
   354.18         10.4550
   354.32         10.4348
   354.46         10.3976
   354.60         10.3486
   354.74         10.2923
   354.88         10.2326
   355.02         10.1724
   355.16         10.1125
   355.30         10.0501
   355.44         9.9800
   355.58         9.8951
   355.72         9.7890
   355.86         9.6572
   356.00         9.5012
   356.14         9.3278
   356.28         9.1448
   356.42         8.9604
   356.56         8.7817
   356.70         8.6148
   356.84         8.4644
   356.98         8.3352
   357.12         8.2277
   357.26         8.1364
   357.40         8.0536
   357.54         7.9742
   357.68         7.8952
   357.82         7.8175
   357.96         7.7479
   358.10         7.6975
   358.24         7.6788
   358.38         7.7033
   358.52         7.7813
   358.66         7.9189
   358.80         8.1148
   358.94         8.3591
   359.08         8.6330
   359.22         8.9115
   359.36         9.1696
   359.50         9.3869
   359.64         9.5478
   359.78         9.6422
   359.92         9.6678
   360.06         9.6316
   360.20         9.5476
   360.34         9.4343
   360.48         9.3090
   360.62         9.1833
   360.76         9.0639
   360.90         8.9568
   361.04         8.8693
   361.18         8.8084
   361.32         8.7791
   361.46         8.7856
   361.60         8.8303
   361.74         8.9092
   361.88         9.0119
   362.02         9.1253
   362.16         9.2349
   362.30         9.3273
   362.44         9.3943
   362.58         9.4334
   362.72         9.4475
   362.86         9.4430
   363.00         9.4273
   363.14         9.4052
   363.28         9.3818
   363.42         9.3641
   363.56         9.3580
   363.70         9.3664
   363.84         9.3893
   363.98         9.4265
   364.12         9.4768
   364.26         9.5369
   364.40         9.6042
   364.54         9.6812
   364.68         9.7760
   364.82         9.8983
   364.96         10.0536
   365.10         10.2415
   365.24         10.4544
   365.38         10.6790
   365.52         10.8976
   365.66         11.0896
   365.80         11.2360
   365.94         11.3256
   366.08         11.3568
   366.22         11.3374
   366.36         11.2818
   366.50         11.2059
   366.64         11.1238
   366.78         11.0466
   366.92         10.9821
   367.06         10.9350
   367.20         10.9051
   367.34         10.8858
   367.48         10.8662
   367.62         10.8354
   367.76         10.7875
   367.90         10.7239
   368.04         10.6497
   368.18         10.5720
   368.32         10.4988
   368.46         10.4405
   368.60         10.4096
   368.74         10.4165
   368.88         10.4664
   369.02         10.5582
   369.16         10.6836
   369.30         10.8270
   369.44         10.9688
   369.58         11.0898
   369.72         11.1742
   369.86         11.2121
   370.00         11.2022
   370.14         11.1544
   370.28         11.0869
   370.42         11.0204
   370.56         10.9705
   370.70         10.9434
   370.84         10.9352
   370.98         10.9353
   371.12         10.9332
   371.26         10.9229
   371.40         10.9011
   371.54         10.8655
   371.68         10.8148
   371.82         10.7480
   371.96         10.6651
   372.10         10.5679
   372.24         10.4575
   372.38         10.3360
   372.52         10.2078
   372.66         10.0800
   372.80         9.9608
   372.94         9.8566
   373.08         9.7694
   373.22         9.6954
   373.36         9.6279
   373.50         9.5615
   373.64         9.4946
   373.78         9.4297
   373.92         9.3734
   374.06         9.3335
   374.20         9.3171
   374.34         9.3300
   374.48         9.3720
   374.62         9.4357
   374.76         9.5121
   374.90         9.5979
   375.04         9.6978
   375.18         9.8187
   375.32         9.9627
   375.46         10.1230
   375.60         10.2854
   375.74         10.4313
   375.88         10.5443
   376.02         10.6178
   376.16         10.6571
   376.30         10.6773
   376.44         10.7000
   376.58         10.7485
   376.72         10.8412
   376.86         10.9866
   377.00         11.1850
   377.14         11.4293
   377.28         11.7082
   377.42         12.0076
   377.56         12.3090
   377.70         12.5898
   377.84         12.8270
   377.98         12.9999
   378.12         13.0914
   378.26         13.0914
   378.40         12.9989
   378.54         12.8208
   378.68         12.5720
   378.82         12.2743
   378.96         11.9551
   379.10         11.6458
   379.24         11.3781
   379.38         11.1797
   379.52         11.0697
   379.66         11.0568
   379.80         11.1393
   379.94         11.3038
   380.08         11.5277
   380.22         11.7841
   380.36         12.0467
   380.50         12.2912
   380.64         12.4939
   380.78         12.6335
   380.92         12.6943
   381.06         12.6692
   381.20         12.5598
   381.34         12.3744
   381.48         12.1260
   381.62         11.8292
   381.76         11.4982
   381.90         11.1449
   382.04         10.7780
   382.18         10.4029
   382.32         10.0248
   382.46         9.6492
   382.60         9.2813
   382.74         8.9293
   382.88         8.6063
   383.02         8.3307
   383.16         8.1229
   383.30         8.0007
   383.44         7.9763
   383.58         8.0544
   383.72         8.2321
   383.86         8.4988
   384.00         8.8377
   384.14         9.2289
   384.28         9.6502
   384.42         10.0755
   384.56         10.4770
   384.70         10.8281
   384.84         11.1093
   384.98         11.3137
   385.12         11.4461
   385.26         11.5196
   385.40         11.5523
   385.54         11.5633
   385.68         11.5680
   385.82         11.5741
   385.96         11.5816
   386.10         11.5876
   386.24         11.5900
   386.38         11.5885
   386.52         11.5832
   386.66         11.5715
   386.80         11.5486
   386.94         11.5085
   387.08         11.4479
   387.22         11.3665
   387.36         11.2657
   387.50         11.1486
   387.64         11.0196
   387.78         10.8834
   387.92         10.7446
   388.06         10.6099
   388.20         10.4884
   388.34         10.3908
   388.48         10.3295
   388.62         10.3176
   388.76         10.3662
   388.90         10.4799
   389.04         10.6542
   389.18         10.8752
   389.32         11.1248
   389.46         11.3858
   389.60         11.6455
   389.74         11.8943
   389.88         12.1245
   390.02         12.3314
   390.16         12.5148
   390.30         12.6786
   390.44         12.8278
   390.58         12.9646
   390.72         13.0872
   390.86         13.1893
   391.00         13.2619
   391.14         13.2968
   391.28         13.2862
   391.42         13.2202
   391.56         13.0869
   391.70         12.8731
   391.84         12.5670
   391.98         12.1621
   392.12         11.6583
   392.26         11.0635
   392.40         10.3952
   392.54         9.6827
   392.68         8.9667
   392.82         8.2941
   392.96         7.7111
   393.10         7.2570
   393.24         6.9615
   393.38         6.8453
   393.52         6.9175
   393.66         7.1736
   393.80         7.5951
   393.94         8.1488
   394.08         8.7906
   394.22         9.4728
   394.36         10.1502
   394.50         10.7849
   394.64         11.3487
   394.78         11.8216
   394.92         12.1899
   395.06         12.4442
   395.20         12.5770
   395.34         12.5798
   395.48         12.4428
   395.62         12.1592
   395.76         11.7329
   395.90         11.1850
   396.04         10.5535
   396.18         9.8883
   396.32         9.2467
   396.46         8.6880
   396.60         8.2679
   396.74         8.0314
   396.88         8.0077
   397.02         8.2062
   397.16         8.6152
   397.30         9.2034
   397.44         9.9246
   397.58         10.7233
   397.72         11.5427
   397.86         12.3312
   398.00         13.0478
   398.14         13.6654
   398.28         14.1719
   398.42         14.5694
   398.56         14.8706
   398.70         15.0961
   398.84         15.2690
   398.98         15.4109
   399.12         15.5375
   399.26         15.6560
   399.40         15.7659
   399.54         15.8645
   399.68         15.9500
   399.82         16.0228
   399.96         16.0859
   400.10         16.1428
   400.24         16.1963
   400.38         16.2484
   400.52         16.3009
   400.66         16.3554
   400.80         16.4126
   400.94         16.4738
   401.08         16.5403
   401.22         16.6142
   401.36         16.6969
   401.50         16.7863
   401.64         16.8748
   401.78         16.9506
   401.92         17.0012
   402.06         17.0191
   402.20         17.0044
   402.34         16.9634
   402.48         16.9062
   402.62         16.8446
   402.76         16.7892
   402.90         16.7473
   403.04         16.7209
   403.18         16.7061
   403.32         16.6959
   403.46         16.6826
   403.60         16.6602
   403.74         16.6264
   403.88         16.5819
   404.02         16.5288
   404.16         16.4674
   404.30         16.3962
   404.44         16.3149
   404.58         16.2278
   404.72         16.1445
   404.86         16.0757
   405.00         16.0267
   405.14         15.9945
   405.28         15.9706
   405.42         15.9445
   405.56         15.9086
   405.70         15.8603
   405.84         15.8022
   405.98         15.7422
   406.12         15.6916
   406.26         15.6591
   406.40         15.6453
   406.54         15.6441
   406.68         15.6473
   406.82         15.6510
   406.96         15.6567
   407.10         15.6679
   407.24         15.6881
   407.38         15.7207
   407.52         15.7686
   407.66         15.8343
   407.80         15.9201
   407.94         16.0284
   408.08         16.1574
   408.22         16.2989
   408.36         16.4373
   408.50         16.5508
   408.64         16.6163
   408.78         16.6115
   408.92         16.5169
   409.06         16.3241
   409.20         16.0434
   409.34         15.7013
   409.48         15.3320
   409.62         14.9694
   409.76         14.6441
   409.90         14.3859
   410.04         14.2215
   410.18         14.1691
   410.32         14.2344
   410.46         14.4091
   410.60         14.6719
   410.74         14.9928
   410.88         15.3389
   411.02         15.6787
   411.16         15.9859
   411.30         16.2431
   411.44         16.4413
   411.58         16.5820
   411.72         16.6753
   411.86         16.7343
   412.00         16.7679
   412.14         16.7801
   412.28         16.7744
   412.42         16.7574
   412.56         16.7387
   412.70         16.7279
   412.84         16.7318
   412.98         16.7506
   413.12         16.7802
   413.26         16.8171
   413.40         16.8616
   413.54         16.9143
   413.68         16.9730
   413.82         17.0334
   413.96         17.0902
   414.10         17.1367
   414.24         17.1657
   414.38         17.1711
   414.52         17.1495
   414.66         17.1027
   414.80         17.0382
   414.94         16.9690
   415.08         16.9093
   415.22         16.8708
   415.36         16.8591
   415.50         16.8720
   415.64         16.9041
   415.78         16.9504
   415.92         17.0043
   416.06         17.0556
   416.20         17.0907
   416.34         17.0981
   416.48         17.0717
   416.62         17.0109
   416.76         16.9187
   416.90         16.8022
   417.04         16.6727
   417.18         16.5439
   417.32         16.4303
   417.46         16.3427
   417.60         16.2865
   417.74         16.2621
   417.88         16.2659
   418.02         16.2923
   418.16         16.3352
   418.30         16.3887
   418.44         16.4439
   418.58         16.4885
   418.72         16.5119
   418.86         16.5081
   419.00         16.4764
   419.14         16.4197
   419.28         16.3445
   419.42         16.2603
   419.56         16.1785
   419.70         16.1107
   419.84         16.0684
   419.98         16.0610
   420.12         16.0939
   420.26         16.1674
   420.40         16.2769
   420.54         16.4146
   420.68         16.5702
   420.82         16.7316
   420.96         16.8858
   421.10         17.0183
   421.24         17.1136
   421.38         17.1568
   421.52         17.1389
   421.66         17.0612
   421.80         16.9359
   421.94         16.7815
   422.08         16.6163
   422.22         16.4549
   422.36         16.3083
   422.50         16.1852
   422.64         16.0912
   422.78         16.0298
   422.92         16.0022
   423.06         16.0090
   423.20         16.0505
   423.34         16.1220
   423.48         16.2121
   423.62         16.3041
   423.76         16.3797
   423.90         16.4271
   424.04         16.4464
   424.18         16.4475
   424.32         16.4439
   424.46         16.4443
   424.60         16.4492
   424.74         16.4521
   424.88         16.4465
   425.02         16.4316
   425.16         16.4138
   425.30         16.4028
   425.44         16.4065
   425.58         16.4268
   425.72         16.4590
   425.86         16.4926
   426.00         16.5137
   426.14         16.5112
   426.28         16.4813
   426.42         16.4281
   426.56         16.3612
   426.70         16.2901
   426.84         16.2207
   426.98         16.1566
   427.12         16.0998
   427.26         16.0512
   427.40         16.0113
   427.54         15.9812
   427.68         15.9601
   427.82         15.9428
   427.96         15.9204
   428.10         15.8829
   428.24         15.8227
   428.38         15.7354
   428.52         15.6190
   428.66         15.4736
   428.80         15.3003
   428.94         15.1010
   429.08         14.8774
   429.22         14.6315
   429.36         14.3649
   429.50         14.0794
   429.64         13.7795
   429.78         13.4731
   429.92         13.1730
   430.06         12.8968
   430.20         12.6666
   430.34         12.5083
   430.48         12.4490
   430.62         12.5101
   430.76         12.7003
   430.90         13.0112
   431.04         13.4188
   431.18         13.8858
   431.32         14.3694
   431.46         14.8309
   431.60         15.2427
   431.74         15.5881
   431.88         15.8584
   432.02         16.0511
   432.16         16.1723
   432.30         16.2351
   432.44         16.2542
   432.58         16.2396
   432.72         16.1934
   432.86         16.1123
   433.00         15.9934
   433.14         15.8370
   433.28         15.6462
   433.42         15.4294
   433.56         15.2012
   433.70         14.9811
   433.84         14.7913
   433.98         14.6545
   434.12         14.5910
   434.26         14.6159
   434.40         14.7324
   434.54         14.9326
   434.68         15.2008
   434.82         15.5152
   434.96         15.8501
   435.10         16.1807
   435.24         16.4892
   435.38         16.7668
   435.52         17.0132
   435.66         17.2337
   435.80         17.4328
   435.94         17.6097
   436.08         17.7583
   436.22         17.8689
   436.36         17.9331
   436.50         17.9488
   436.64         17.9200
   436.78         17.8560
   436.92         17.7663
   437.06         17.6545
   437.20         17.5188
   437.34         17.3575
   437.48         17.1745
   437.62         16.9787
   437.76         16.7810
   437.90         16.5914
   438.04         16.4198
   438.18         16.2755
   438.32         16.1678
   438.46         16.1052
   438.60         16.0924
   438.74         16.1287
   438.88         16.2094
   439.02         16.3263
   439.16         16.4664
   439.30         16.6124
   439.44         16.7464
   439.58         16.8537
   439.72         16.9267
   439.86         16.9682
   440.00         16.9913
   440.14         17.0097
   440.28         17.0316
   440.42         17.0610
   440.56         17.1027
   440.70         17.1628
   440.84         17.2466
   440.98         17.3544
   441.12         17.4805
   441.26         17.6156
   441.40         17.7495
   441.54         17.8746
   441.68         17.9863
   441.82         18.0822
   441.96         18.1608
   442.10         18.2199
   442.24         18.2554
   442.38         18.2652
   442.52         18.2514
   442.66         18.2197
   442.80         18.1759
   442.94         18.1255
   443.08         18.0745
   443.22         18.0297
   443.36         17.9966
   443.50         17.9770
   443.64         17.9693
   443.78         17.9721
   443.92         17.9849
   444.06         18.0049
   444.20         18.0255
   444.34         18.0365
   444.48         18.0267
   444.62         17.9862
   444.76         17.9100
   444.90         17.7998
   445.04         17.6650
   445.18         17.5192
   445.32         17.3750
   445.46         17.2422
   445.60         17.1294
   445.74         17.0468
   445.88         17.0058
   446.02         17.0150
   446.16         17.0781
   446.30         17.1930
   446.44         17.3539
   446.58         17.5502
   446.72         17.7642
   446.86         17.9744
   447.00         18.1628
   447.14         18.3186
   447.28         18.4377
   447.42         18.5208
   447.56         18.5702
   447.70         18.5890
   447.84         18.5817
   447.98         18.5537
   448.12         18.5114
   448.26         18.4619
   448.40         18.4125
   448.54         18.3713
   448.68         18.3457
   448.82         18.3395
   448.96         18.3544
   449.10         18.3920
   449.24         18.4530
   449.38         18.5363
   449.52         18.6403
   449.66         18.7635
   449.80         18.9020
   449.94         19.0474
   450.08         19.1875
   450.22         19.3094
   450.36         19.4039
   450.50         19.4660
   450.64         19.4921
   450.78         19.4811
   450.92         19.4354
   451.06         19.3597
   451.20         19.2601
   451.34         19.1412
   451.48         19.0052
   451.62         18.8533
   451.76         18.6878
   451.90         18.5099
   452.04         18.3206
   452.18         18.1239
   452.32         17.9293
   452.46         17.7506
   452.60         17.6024
   452.74         17.4978
   452.88         17.4455
   453.02         17.4481
   453.16         17.5023
   453.30         17.5981
   453.44         17.7210
   453.58         17.8526
   453.72         17.9740
   453.86         18.0692
   454.00         18.1274
   454.14         18.1442
   454.28         18.1227
   454.42         18.0724
   454.56         18.0066
   454.70         17.9412
   454.84         17.8934
   454.98         17.8758
   455.12         17.8931
   455.26         17.9433
   455.40         18.0201
   455.54         18.1154
   455.68         18.2214
   455.82         18.3306
   455.96         18.4363
   456.10         18.5336
   456.24         18.6201
   456.38         18.6956
   456.52         18.7609
   456.66         18.8166
   456.80         18.8614
   456.94         18.8916
   457.08         18.9018
   457.22         18.8870
   457.36         18.8450
   457.50         18.7769
   457.64         18.6854
