# File HD33506
# Wavelength [nm]    Normalized Amplitude
   349.70         1.4658
   349.84         1.4394
   349.98         1.4151
   350.12         1.3938
   350.26         1.3752
   350.40         1.3589
   350.54         1.3455
   350.68         1.3358
   350.82         1.3300
   350.96         1.3271
   351.10         1.3262
   351.24         1.3271
   351.38         1.3300
   351.52         1.3358
   351.66         1.3455
   351.80         1.3589
   351.94         1.3752
   352.08         1.3938
   352.22         1.4151
   352.36         1.4394
   352.50         1.4658
   352.64         1.4930
   352.78         1.5203
   352.92         1.5476
   353.06         1.5758
   353.20         1.6046
   353.34         1.6323
   353.48         1.6557
   353.62         1.6720
   353.76         1.6796
   353.90         1.6783
   354.04         1.6681
   354.18         1.6488
   354.32         1.6199
   354.46         1.5819
   354.60         1.5353
   354.74         1.4815
   354.88         1.4234
   355.02         1.3651
   355.16         1.3122
   355.30         1.2692
   355.44         1.2375
   355.58         1.2154
   355.72         1.2001
   355.86         1.1886
   356.00         1.1780
   356.14         1.1660
   356.28         1.1509
   356.42         1.1323
   356.56         1.1103
   356.70         1.0856
   356.84         1.0592
   356.98         1.0322
   357.12         1.0055
   357.26         0.9798
   357.40         0.9559
   357.54         0.9349
   357.68         0.9170
   357.82         0.9022
   357.96         0.8906
   358.10         0.8831
   358.24         0.8822
   358.38         0.8909
   358.52         0.9132
   358.66         0.9520
   358.80         1.0097
   358.94         1.0873
   359.08         1.1826
   359.22         1.2898
   359.36         1.4005
   359.50         1.5055
   359.64         1.5975
   359.78         1.6710
   359.92         1.7221
   360.06         1.7490
   360.20         1.7527
   360.34         1.7374
   360.48         1.7094
   360.62         1.6746
   360.76         1.6376
   360.90         1.6020
   361.04         1.5719
   361.18         1.5525
   361.32         1.5490
   361.46         1.5651
   361.60         1.6017
   361.74         1.6562
   361.88         1.7238
   362.02         1.7988
   362.16         1.8756
   362.30         1.9484
   362.44         2.0126
   362.58         2.0656
   362.72         2.1071
   362.86         2.1392
   363.00         2.1650
   363.14         2.1862
   363.28         2.2040
   363.42         2.2204
   363.56         2.2373
   363.70         2.2550
   363.84         2.2727
   363.98         2.2890
   364.12         2.3032
   364.26         2.3147
   364.40         2.3239
   364.54         2.3331
   364.68         2.3476
   364.82         2.3741
   364.96         2.4181
   365.10         2.4823
   365.24         2.5654
   365.38         2.6636
   365.52         2.7705
   365.66         2.8766
   365.80         2.9708
   365.94         3.0446
   366.08         3.0925
   366.22         3.1124
   366.36         3.1062
   366.50         3.0804
   366.64         3.0431
   366.78         3.0003
   366.92         2.9559
   367.06         2.9129
   367.20         2.8739
   367.34         2.8391
   367.48         2.8054
   367.62         2.7677
   367.76         2.7228
   367.90         2.6710
   368.04         2.6155
   368.18         2.5613
   368.32         2.5133
   368.46         2.4761
   368.60         2.4548
   368.74         2.4537
   368.88         2.4752
   369.02         2.5183
   369.16         2.5776
   369.30         2.6439
   369.44         2.7061
   369.58         2.7546
   369.72         2.7813
   369.86         2.7812
   370.00         2.7538
   370.14         2.7045
   370.28         2.6433
   370.42         2.5822
   370.56         2.5305
   370.70         2.4924
   370.84         2.4661
   370.98         2.4460
   371.12         2.4263
   371.26         2.4030
   371.40         2.3736
   371.54         2.3361
   371.68         2.2883
   371.82         2.2293
   371.96         2.1601
   372.10         2.0839
   372.24         2.0049
   372.38         1.9279
   372.52         1.8567
   372.66         1.7944
   372.80         1.7421
   372.94         1.6988
   373.08         1.6611
   373.22         1.6255
   373.36         1.5898
   373.50         1.5531
   373.64         1.5166
   373.78         1.4836
   373.92         1.4570
   374.06         1.4388
   374.20         1.4307
   374.34         1.4345
   374.48         1.4508
   374.62         1.4779
   374.76         1.5120
   374.90         1.5494
   375.04         1.5876
   375.18         1.6258
   375.32         1.6635
   375.46         1.6997
   375.60         1.7325
   375.74         1.7598
   375.88         1.7810
   376.02         1.7977
   376.16         1.8140
   376.30         1.8360
   376.44         1.8701
   376.58         1.9206
   376.72         1.9896
   376.86         2.0769
   377.00         2.1794
   377.14         2.2901
   377.28         2.4012
   377.42         2.5056
   377.56         2.5967
   377.70         2.6681
   377.84         2.7140
   377.98         2.7304
   378.12         2.7158
   378.26         2.6713
   378.40         2.6004
   378.54         2.5086
   378.68         2.4028
   378.82         2.2899
   378.96         2.1773
   379.10         2.0725
   379.24         1.9832
   379.38         1.9160
   379.52         1.8744
   379.66         1.8582
   379.80         1.8638
   379.94         1.8862
   380.08         1.9186
   380.22         1.9537
   380.36         1.9848
   380.50         2.0060
   380.64         2.0122
   380.78         1.9984
   380.92         1.9618
   381.06         1.9018
   381.20         1.8208
   381.34         1.7234
   381.48         1.6151
   381.62         1.5016
   381.76         1.3887
   381.90         1.2821
   382.04         1.1867
   382.18         1.1064
   382.32         1.0447
   382.46         1.0042
   382.60         0.9855
   382.74         0.9863
   382.88         1.0025
   383.02         1.0288
   383.16         1.0605
   383.30         1.0938
   383.44         1.1264
   383.58         1.1571
   383.72         1.1852
   383.86         1.2101
   384.00         1.2314
   384.14         1.2488
   384.28         1.2626
   384.42         1.2736
   384.56         1.2824
   384.70         1.2886
   384.84         1.2911
   384.98         1.2892
   385.12         1.2829
   385.26         1.2733
   385.40         1.2621
   385.54         1.2507
   385.68         1.2412
   385.82         1.2345
   385.96         1.2304
   386.10         1.2279
   386.24         1.2271
   386.38         1.2287
   386.52         1.2342
   386.66         1.2446
   386.80         1.2597
   386.94         1.2781
   387.08         1.2987
   387.22         1.3211
   387.36         1.3462
   387.50         1.3745
   387.64         1.4071
   387.78         1.4458
   387.92         1.4928
   388.06         1.5505
   388.20         1.6210
   388.34         1.7053
   388.48         1.8030
   388.62         1.9128
   388.76         2.0323
   388.90         2.1581
   389.04         2.2853
   389.18         2.4076
   389.32         2.5179
   389.46         2.6104
   389.60         2.6821
   389.74         2.7341
   389.88         2.7702
   390.02         2.7955
   390.16         2.8158
   390.30         2.8373
   390.44         2.8658
   390.58         2.9038
   390.72         2.9492
   390.86         2.9956
   391.00         3.0343
   391.14         3.0573
   391.28         3.0592
   391.42         3.0368
   391.56         2.9887
   391.70         2.9144
   391.84         2.8139
   391.98         2.6879
   392.12         2.5395
   392.26         2.3739
   392.40         2.1979
   392.54         2.0191
   392.68         1.8452
   392.82         1.6845
   392.96         1.5444
   393.10         1.4313
   393.24         1.3498
   393.38         1.3030
   393.52         1.2939
   393.66         1.3253
   393.80         1.3985
   393.94         1.5120
   394.08         1.6602
   394.22         1.8350
   394.36         2.0264
   394.50         2.2241
   394.64         2.4185
   394.78         2.6010
   394.92         2.7635
   395.06         2.8973
   395.20         2.9943
   395.34         3.0480
   395.48         3.0543
   395.62         3.0104
   395.76         2.9164
   395.90         2.7768
   396.04         2.6019
   396.18         2.4073
   396.32         2.2114
   396.46         2.0334
   396.60         1.8920
   396.74         1.8025
   396.88         1.7764
   397.02         1.8197
   397.16         1.9320
   397.30         2.1067
   397.44         2.3328
   397.58         2.5964
   397.72         2.8824
   397.86         3.1758
   398.00         3.4626
   398.14         3.7305
   398.28         3.9703
   398.42         4.1776
   398.56         4.3522
   398.70         4.4965
   398.84         4.6154
   398.98         4.7155
   399.12         4.8037
   399.26         4.8845
   399.40         4.9595
   399.54         5.0283
   399.68         5.0913
   399.82         5.1492
   399.96         5.2034
   400.10         5.2564
   400.24         5.3103
   400.38         5.3668
   400.52         5.4264
   400.66         5.4891
   400.80         5.5544
   400.94         5.6215
   401.08         5.6888
   401.22         5.7541
   401.36         5.8155
   401.50         5.8719
   401.64         5.9208
   401.78         5.9576
   401.92         5.9752
   402.06         5.9676
   402.20         5.9317
   402.34         5.8689
   402.48         5.7839
   402.62         5.6850
   402.76         5.5820
   402.90         5.4842
   403.04         5.3981
   403.18         5.3259
   403.32         5.2655
   403.46         5.2129
   403.60         5.1650
   403.74         5.1220
   403.88         5.0861
   404.02         5.0607
   404.16         5.0474
   404.30         5.0442
   404.44         5.0469
   404.58         5.0512
   404.72         5.0545
   404.86         5.0564
   405.00         5.0571
   405.14         5.0545
   405.28         5.0442
   405.42         5.0218
   405.56         4.9850
   405.70         4.9353
   405.84         4.8770
   405.98         4.8162
   406.12         4.7615
   406.26         4.7227
   406.40         4.7056
   406.54         4.7103
   406.68         4.7328
   406.82         4.7683
   406.96         4.8134
   407.10         4.8673
   407.24         4.9293
   407.38         4.9992
   407.52         5.0766
   407.66         5.1619
   407.80         5.2562
   407.94         5.3606
   408.08         5.4746
   408.22         5.5944
   408.36         5.7118
   408.50         5.8157
   408.64         5.8953
   408.78         5.9434
   408.92         5.9553
   409.06         5.9293
   409.20         5.8687
   409.34         5.7822
   409.48         5.6819
   409.62         5.5795
   409.76         5.4843
   409.90         5.4021
   410.04         5.3374
   410.18         5.2931
   410.32         5.2707
   410.46         5.2680
   410.60         5.2795
   410.74         5.2980
   410.88         5.3165
   411.02         5.3288
   411.16         5.3308
   411.30         5.3214
   411.44         5.3018
   411.58         5.2749
   411.72         5.2438
   411.86         5.2115
   412.00         5.1788
   412.14         5.1440
   412.28         5.1043
   412.42         5.0580
   412.56         5.0057
   412.70         4.9511
   412.84         4.8984
   412.98         4.8498
   413.12         4.8046
   413.26         4.7603
   413.40         4.7151
   413.54         4.6690
   413.68         4.6223
   413.82         4.5754
   413.96         4.5281
   414.10         4.4796
   414.24         4.4283
   414.38         4.3722
   414.52         4.3113
   414.66         4.2489
   414.80         4.1913
   414.94         4.1464
   415.08         4.1216
   415.22         4.1211
   415.36         4.1452
   415.50         4.1901
   415.64         4.2501
   415.78         4.3198
   415.92         4.3950
   416.06         4.4708
   416.20         4.5405
   416.34         4.5961
   416.48         4.6314
   416.62         4.6428
   416.76         4.6298
   416.90         4.5947
   417.04         4.5435
   417.18         4.4851
   417.32         4.4303
   417.46         4.3887
   417.60         4.3665
   417.74         4.3669
   417.88         4.3907
   418.02         4.4365
   418.16         4.5010
   418.30         4.5785
   418.44         4.6614
   418.58         4.7398
   418.72         4.8041
   418.86         4.8478
   419.00         4.8685
   419.14         4.8667
   419.28         4.8462
   419.42         4.8136
   419.56         4.7782
   419.70         4.7492
   419.84         4.7344
   419.98         4.7388
   420.12         4.7627
   420.26         4.8034
   420.40         4.8571
   420.54         4.9212
   420.68         4.9954
   420.82         5.0812
   420.96         5.1803
   421.10         5.2924
   421.24         5.4124
   421.38         5.5306
   421.52         5.6337
   421.66         5.7096
   421.80         5.7526
   421.94         5.7641
   422.08         5.7499
   422.22         5.7163
   422.36         5.6696
   422.50         5.6166
   422.64         5.5656
   422.78         5.5260
   422.92         5.5086
   423.06         5.5244
   423.20         5.5831
   423.34         5.6895
   423.48         5.8397
   423.62         6.0200
   423.76         6.2083
   423.90         6.3811
   424.04         6.5197
   424.18         6.6145
   424.32         6.6645
   424.46         6.6747
   424.60         6.6511
   424.74         6.5987
   424.88         6.5221
   425.02         6.4285
   425.16         6.3302
   425.30         6.2434
   425.44         6.1834
   425.58         6.1609
   425.72         6.1785
   425.86         6.2294
   426.00         6.2976
   426.14         6.3620
   426.28         6.4026
   426.42         6.4070
   426.56         6.3736
   426.70         6.3097
   426.84         6.2271
   426.98         6.1387
   427.12         6.0569
   427.26         5.9923
   427.40         5.9524
   427.54         5.9418
   427.68         5.9622
   427.82         6.0103
   427.96         6.0769
   428.10         6.1482
   428.24         6.2096
   428.38         6.2495
   428.52         6.2606
   428.66         6.2410
   428.80         6.1927
   428.94         6.1206
   429.08         6.0304
   429.22         5.9266
   429.36         5.8111
   429.50         5.6834
   429.64         5.5427
   429.78         5.3897
   429.92         5.2280
   430.06         5.0652
   430.20         4.9139
   430.34         4.7903
   430.48         4.7144
   430.62         4.7075
   430.76         4.7862
   430.90         4.9569
   431.04         5.2143
   431.18         5.5402
   431.32         5.9054
   431.46         6.2762
   431.60         6.6229
   431.74         6.9252
   431.88         7.1722
   432.02         7.3607
   432.16         7.4941
   432.30         7.5838
   432.44         7.6465
   432.58         7.6990
   432.72         7.7542
   432.86         7.8185
   433.00         7.8934
   433.14         7.9768
   433.28         8.0634
   433.42         8.1455
   433.56         8.2154
   433.70         8.2681
   433.84         8.3022
   433.98         8.3189
   434.12         8.3227
   434.26         8.3209
   434.40         8.3215
   434.54         8.3289
   434.68         8.3444
   434.82         8.3668
   434.96         8.3933
   435.10         8.4204
   435.24         8.4465
   435.38         8.4737
   435.52         8.5073
   435.66         8.5526
   435.80         8.6129
   435.94         8.6871
   436.08         8.7689
   436.22         8.8474
   436.36         8.9096
   436.50         8.9437
   436.64         8.9427
   436.78         8.9060
   436.92         8.8375
   437.06         8.7405
   437.20         8.6135
   437.34         8.4533
   437.48         8.2607
   437.62         8.0435
   437.76         7.8142
   437.90         7.5863
   438.04         7.3715
   438.18         7.1800
   438.32         7.0216
   438.46         6.9067
   438.60         6.8448
   438.74         6.8416
   438.88         6.8966
   439.02         7.0039
   439.16         7.1520
   439.30         7.3219
   439.44         7.4891
   439.58         7.6296
   439.72         7.7265
   439.86         7.7753
   440.00         7.7850
   440.14         7.7731
   440.28         7.7550
   440.42         7.7403
   440.56         7.7364
   440.70         7.7513
   440.84         7.7929
   440.98         7.8654
   441.12         7.9659
   441.26         8.0860
   441.40         8.2146
   441.54         8.3405
   441.68         8.4545
   441.82         8.5493
   441.96         8.6205
   442.10         8.6676
   442.24         8.6942
   442.38         8.7051
   442.52         8.7053
   442.66         8.7015
   442.80         8.6992
   442.94         8.7012
   443.08         8.7091
   443.22         8.7262
   443.36         8.7574
   443.50         8.8055
   443.64         8.8706
   443.78         8.9522
   443.92         9.0505
   444.06         9.1633
   444.20         9.2835
   444.34         9.3985
   444.48         9.4946
   444.62         9.5599
   444.76         9.5864
   444.90         9.5694
   445.04         9.5091
   445.18         9.4125
   445.32         9.2920
   445.46         9.1600
   445.60         9.0278
   445.74         8.9069
   445.88         8.8111
   446.02         8.7527
   446.16         8.7400
   446.30         8.7759
   446.44         8.8589
   446.58         8.9833
   446.72         9.1387
   446.86         9.3117
   447.00         9.4873
   447.14         9.6537
   447.28         9.8042
   447.42         9.9366
   447.56         10.0522
   447.70         10.1528
   447.84         10.2387
   447.98         10.3085
   448.12         10.3583
   448.26         10.3835
   448.40         10.3807
   448.54         10.3516
   448.68         10.3034
   448.82         10.2456
   448.96         10.1878
   449.10         10.1400
   449.24         10.1131
   449.38         10.1159
   449.52         10.1543
   449.66         10.2315
   449.80         10.3488
   449.94         10.5033
   450.08         10.6843
   450.22         10.8732
   450.36         11.0491
   450.50         11.1947
   450.64         11.2986
   450.78         11.3565
   450.92         11.3709
   451.06         11.3500
   451.20         11.3040
   451.34         11.2399
   451.48         11.1592
   451.62         11.0599
   451.76         10.9407
   451.90         10.8012
   452.04         10.6422
   452.18         10.4657
   452.32         10.2771
   452.46         10.0857
   452.60         9.9041
   452.74         9.7444
   452.88         9.6174
   453.02         9.5324
   453.16         9.4955
   453.30         9.5080
   453.44         9.5655
   453.58         9.6574
   453.72         9.7685
   453.86         9.8814
   454.00         9.9808
   454.14         10.0565
   454.28         10.1059
   454.42         10.1348
   454.56         10.1542
   454.70         10.1765
   454.84         10.2122
   454.98         10.2674
   455.12         10.3443
   455.26         10.4390
   455.40         10.5427
   455.54         10.6462
   455.68         10.7435
   455.82         10.8313
   455.96         10.9065
   456.10         10.9676
   456.24         11.0161
   456.38         11.0552
   456.52         11.0886
   456.66         11.1182
   456.80         11.1435
   456.94         11.1628
   457.08         11.1748
   457.22         11.1768
   457.36         11.1641
   457.50         11.1328
   457.64         11.0832
   457.78         11.0197
   457.92         10.9493
   458.06         10.8804
   458.20         10.8210
   458.34         10.7757
   458.48         10.7441
   458.62         10.7229
   458.76         10.7093
   458.90         10.7016
   459.04         10.6961
   459.18         10.6869
   459.32         10.6693
   459.46         10.6438
   459.60         10.6194
   459.74         10.6093
   459.88         10.6250
   460.02         10.6726
   460.16         10.7544
   460.30         10.8684
   460.44         11.0088
   460.58         11.1670
   460.72         11.3322
