# File HD33278
# Wavelength [nm]    Normalized Amplitude
   349.70         10.8492
   349.84         10.7042
   349.98         10.6583
   350.12         10.6944
   350.26         10.7833
   350.40         10.8963
   350.54         11.0154
   350.68         11.1293
   350.82         11.2286
   350.96         11.3002
   351.10         11.3268
   351.24         11.3002
   351.38         11.2286
   351.52         11.1293
   351.66         11.0154
   351.80         10.8963
   351.94         10.7833
   352.08         10.6944
   352.22         10.6583
   352.36         10.7042
   352.50         10.8492
   352.64         11.0966
   352.78         11.4379
   352.92         11.8588
   353.06         12.3439
   353.20         12.8655
   353.34         13.3724
   353.48         13.8060
   353.62         14.1216
   353.76         14.3025
   353.90         14.3549
   354.04         14.2938
   354.18         14.1357
   354.32         13.8977
   354.46         13.5998
   354.60         13.2621
   354.74         12.9013
   354.88         12.5331
   355.02         12.1714
   355.16         11.8232
   355.30         11.4888
   355.44         11.1629
   355.58         10.8451
   355.72         10.5380
   355.86         10.2354
   356.00         9.9357
   356.14         9.6535
   356.28         9.4089
   356.42         9.2093
   356.56         9.0454
   356.70         8.9019
   356.84         8.7624
   356.98         8.6085
   357.12         8.4218
   357.26         8.1905
   357.40         7.9097
   357.54         7.5824
   357.68         7.2211
   357.82         6.8484
   357.96         6.4966
   358.10         6.2071
   358.24         6.0288
   358.38         6.0066
   358.52         6.1742
   358.66         6.5545
   358.80         7.1518
   358.94         7.9427
   359.08         8.8759
   359.22         9.8863
   359.36         10.9041
   359.50         11.8560
   359.64         12.6718
   359.78         13.3014
   359.92         13.7243
   360.06         13.9448
   360.20         13.9844
   360.34         13.8830
   360.48         13.6928
   360.62         13.4599
   360.76         13.2181
   360.90         12.9954
   361.04         12.8171
   361.18         12.7034
   361.32         12.6709
   361.46         12.7338
   361.60         12.8995
   361.74         13.1614
   361.88         13.4977
   362.02         13.8716
   362.16         14.2391
   362.30         14.5615
   362.44         14.8182
   362.58         15.0062
   362.72         15.1315
   362.86         15.2041
   363.00         15.2405
   363.14         15.2607
   363.28         15.2810
   363.42         15.3163
   363.56         15.3809
   363.70         15.4822
   363.84         15.6150
   363.98         15.7709
   364.12         15.9404
   364.26         16.1088
   364.40         16.2615
   364.54         16.3930
   364.68         16.5120
   364.82         16.6445
   364.96         16.8246
   365.10         17.0776
   365.24         17.4102
   365.38         17.8122
   365.52         18.2572
   365.66         18.7016
   365.80         19.0944
   365.94         19.3899
   366.08         19.5588
   366.22         19.5979
   366.36         19.5325
   366.50         19.4040
   366.64         19.2516
   366.78         19.0985
   366.92         18.9563
   367.06         18.8328
   367.20         18.7324
   367.34         18.6530
   367.48         18.5797
   367.62         18.4842
   367.76         18.3391
   367.90         18.1376
   368.04         17.8945
   368.18         17.6326
   368.32         17.3756
   368.46         17.1525
   368.60         16.9972
   368.74         16.9414
   368.88         17.0073
   369.02         17.1990
   369.16         17.4936
   369.30         17.8455
   369.44         18.1994
   369.58         18.5022
   369.72         18.7061
   369.86         18.7746
   370.00         18.6917
   370.14         18.4708
   370.28         18.1574
   370.42         17.8169
   370.56         17.5097
   370.70         17.2680
   370.84         17.0859
   370.98         16.9347
   371.12         16.7883
   371.26         16.6348
   371.40         16.4682
   371.54         16.2779
   371.68         16.0477
   371.82         15.7625
   371.96         15.4146
   372.10         15.0061
   372.24         14.5479
   372.38         14.0550
   372.52         13.5464
   372.66         13.0476
   372.80         12.5830
   372.94         12.1679
   373.08         11.8062
   373.22         11.4899
   373.36         11.2036
   373.50         10.9375
   373.64         10.6970
   373.78         10.4966
   373.92         10.3458
   374.06         10.2513
   374.20         10.2258
   374.34         10.2856
   374.48         10.4397
   374.62         10.6803
   374.76         10.9867
   374.90         11.3379
   375.04         11.7180
   375.18         12.1134
   375.32         12.5087
   375.46         12.8822
   375.60         13.2070
   375.74         13.4633
   375.88         13.6489
   376.02         13.7806
   376.16         13.8919
   376.30         14.0250
   376.44         14.2192
   376.58         14.5046
   376.72         14.9008
   376.86         15.4056
   377.00         15.9893
   377.14         16.6050
   377.28         17.2025
   377.42         17.7361
   377.56         18.1640
   377.70         18.4457
   377.84         18.5519
   377.98         18.4738
   378.12         18.2197
   378.26         17.8092
   378.40         17.2719
   378.54         16.6414
   378.68         15.9481
   378.82         15.2239
   378.96         14.5084
   379.10         13.8480
   379.24         13.2946
   379.38         12.8944
   379.52         12.6732
   379.66         12.6315
   379.80         12.7473
   379.94         12.9789
   380.08         13.2726
   380.22         13.5727
   380.36         13.8293
   380.50         14.0043
   380.64         14.0689
   380.78         13.9992
   380.92         13.7781
   381.06         13.4046
   381.20         12.8952
   381.34         12.2775
   381.48         11.5859
   381.62         10.8621
   381.76         10.1497
   381.90         9.4846
   382.04         8.8884
   382.18         8.3709
   382.32         7.9385
   382.46         7.5988
   382.60         7.3540
   382.74         7.1973
   382.88         7.1147
   383.02         7.0939
   383.16         7.1264
   383.30         7.2034
   383.44         7.3144
   383.58         7.4519
   383.72         7.6143
   383.86         7.8015
   384.00         8.0104
   384.14         8.2349
   384.28         8.4702
   384.42         8.7110
   384.56         8.9462
   384.70         9.1579
   384.84         9.3260
   384.98         9.4376
   385.12         9.4903
   385.26         9.4860
   385.40         9.4285
   385.54         9.3275
   385.68         9.1967
   385.82         9.0484
   385.96         8.8940
   386.10         8.7465
   386.24         8.6206
   386.38         8.5316
   386.52         8.4902
   386.66         8.4978
   386.80         8.5480
   386.94         8.6337
   387.08         8.7495
   387.22         8.8904
   387.36         9.0535
   387.50         9.2401
   387.64         9.4575
   387.78         9.7158
   387.92         10.0244
   388.06         10.3953
   388.20         10.8419
   388.34         11.3738
   388.48         11.9918
   388.62         12.6878
   388.76         13.4455
   388.90         14.2401
   389.04         15.0384
   389.18         15.8003
   389.32         16.4856
   389.46         17.0641
   389.60         17.5193
   389.74         17.8483
   389.88         18.0622
   390.02         18.1830
   390.16         18.2422
   390.30         18.2763
   390.44         18.3165
   390.58         18.3814
   390.72         18.4711
   390.86         18.5638
   391.00         18.6233
   391.14         18.6118
   391.28         18.4991
   391.42         18.2647
   391.56         17.8946
   391.70         17.3773
   391.84         16.7052
   391.98         15.8812
   392.12         14.9231
   392.26         13.8640
   392.40         12.7515
   392.54         11.6402
   392.68         10.5850
   392.82         9.6363
   392.96         8.8368
   393.10         8.2189
   393.24         7.8074
   393.38         7.6206
   393.52         7.6690
   393.66         7.9554
   393.80         8.4729
   393.94         9.1981
   394.08         10.0892
   394.22         11.0933
   394.36         12.1545
   394.50         13.2206
   394.64         14.2459
   394.78         15.1897
   394.92         16.0113
   395.06         16.6681
   395.20         17.1181
   395.34         17.3247
   395.48         17.2622
   395.62         16.9202
   395.76         16.3097
   395.90         15.4678
   396.04         14.4573
   396.18         13.3633
   396.32         12.2855
   396.46         11.3274
   396.60         10.5862
   396.74         10.1442
   396.88         10.0604
   397.02         10.3616
   397.16         11.0396
   397.30         12.0540
   397.44         13.3392
   397.58         14.8134
   397.72         16.3894
   397.86         17.9824
   398.00         19.5169
   398.14         20.9332
   398.28         22.1914
   398.42         23.2714
   398.56         24.1700
   398.70         24.9012
   398.84         25.4952
   398.98         25.9898
   399.12         26.4226
   399.26         26.8234
   399.40         27.2071
   399.54         27.5761
   399.68         27.9291
   399.82         28.2667
   399.96         28.5897
   400.10         28.8973
   400.24         29.1867
   400.38         29.4542
   400.52         29.6987
   400.66         29.9210
   400.80         30.1219
   400.94         30.3015
   401.08         30.4613
   401.22         30.6068
   401.36         30.7475
   401.50         30.8928
   401.64         31.0443
   401.78         31.1877
   401.92         31.2913
   402.06         31.3189
   402.20         31.2466
   402.34         31.0723
   402.48         30.8172
   402.62         30.5177
   402.76         30.2140
   402.90         29.9440
   403.04         29.7342
   403.18         29.5885
   403.32         29.4860
   403.46         29.3967
   403.60         29.3036
   403.74         29.2066
   403.88         29.1131
   404.02         29.0313
   404.16         28.9606
   404.30         28.8874
   404.44         28.7912
   404.58         28.6583
   404.72         28.4956
   404.86         28.3242
   405.00         28.1647
   405.14         28.0220
   405.28         27.8820
   405.42         27.7227
   405.56         27.5279
   405.70         27.2945
   405.84         27.0301
   405.98         26.7559
   406.12         26.5106
   406.26         26.3359
   406.40         26.2494
   406.54         26.2404
   406.68         26.2886
   406.82         26.3774
   406.96         26.5043
   407.10         26.6778
   407.24         26.9083
   407.38         27.2067
   407.52         27.5825
   407.66         28.0434
   407.80         28.5960
   407.94         29.2424
   408.08         29.9710
   408.22         30.7478
   408.36         31.5162
   408.50         32.2073
   408.64         32.7577
   408.78         33.1197
   408.92         33.2573
   409.06         33.1531
   409.20         32.8233
   409.34         32.3185
   409.48         31.7063
   409.62         31.0538
   409.76         30.4154
   409.90         29.8346
   410.04         29.3492
   410.18         28.9891
   410.32         28.7683
   410.46         28.6792
   410.60         28.6959
   410.74         28.7826
   410.88         28.9046
   411.02         29.0334
   411.16         29.1494
   411.30         29.2427
   411.44         29.3085
   411.58         29.3453
   411.72         29.3550
   411.86         29.3385
   412.00         29.2909
   412.14         29.2026
   412.28         29.0663
   412.42         28.8851
   412.56         28.6758
   412.70         28.4655
   412.84         28.2786
   412.98         28.1218
   413.12         27.9835
   413.26         27.8465
   413.40         27.7019
   413.54         27.5519
   413.68         27.4000
   413.82         27.2469
   413.96         27.0911
   414.10         26.9289
   414.24         26.7558
   414.38         26.5705
   414.52         26.3810
   414.66         26.2057
   414.80         26.0683
   414.94         25.9909
   415.08         25.9878
   415.22         26.0615
   415.36         26.2004
   415.50         26.3817
   415.64         26.5806
   415.78         26.7808
   415.92         26.9723
   416.06         27.1395
   416.20         27.2571
   416.34         27.2963
   416.48         27.2366
   416.62         27.0711
   416.76         26.8081
   416.90         26.4692
   417.04         26.0877
   417.18         25.7070
   417.32         25.3732
   417.46         25.1247
   417.60         24.9857
   417.74         24.9661
   417.88         25.0629
   418.02         25.2641
   418.16         25.5510
   418.30         25.8949
   418.44         26.2524
   418.58         26.5717
   418.72         26.8085
   418.86         26.9381
   419.00         26.9535
   419.14         26.8615
   419.28         26.6828
   419.42         26.4535
   419.56         26.2190
   419.70         26.0264
   419.84         25.9203
   419.98         25.9314
   420.12         26.0681
   420.26         26.3205
   420.40         26.6723
   420.54         27.1084
   420.68         27.6138
   420.82         28.1698
   420.96         28.7519
   421.10         29.3283
   421.24         29.8592
   421.38         30.2954
   421.52         30.5860
   421.66         30.6986
   421.80         30.6378
   421.94         30.4395
   422.08         30.1523
   422.22         29.8206
   422.36         29.4801
   422.50         29.1620
   422.64         28.8964
   422.78         28.7141
   422.92         28.6492
   423.06         28.7345
   423.20         28.9926
   423.34         29.4255
   423.48         30.0055
   423.62         30.6740
   423.76         31.3520
   423.90         31.9606
   424.04         32.4436
   424.18         32.7788
   424.32         32.9716
   424.46         33.0368
   424.60         32.9840
   424.74         32.8152
   424.88         32.5360
   425.02         32.1729
   425.16         31.7808
   425.30         31.4325
   425.44         31.1962
   425.58         31.1156
   425.72         31.2005
   425.86         31.4207
   426.00         31.7122
   426.14         31.9949
   426.28         32.1958
   426.42         32.2727
   426.56         32.2200
   426.70         32.0580
   426.84         31.8178
   426.98         31.5344
   427.12         31.2442
   427.26         30.9809
   427.40         30.7692
   427.54         30.6293
   427.68         30.5735
   427.82         30.5935
   427.96         30.6594
   428.10         30.7281
   428.24         30.7586
   428.38         30.7216
   428.52         30.6026
   428.66         30.4027
   428.80         30.1341
   428.94         29.8139
   429.08         29.4592
   429.22         29.0783
   429.36         28.6648
   429.50         28.2031
   429.64         27.6789
   429.78         27.0901
   429.92         26.4515
   430.06         25.7989
   430.20         25.1910
   430.34         24.7069
   430.48         24.4413
   430.62         24.4892
   430.76         24.9183
   430.90         25.7460
   431.04         26.9304
   431.18         28.3764
   431.32         29.9515
   431.46         31.5150
   431.60         32.9510
   431.74         34.1828
   431.88         35.1682
   432.02         35.8943
   432.16         36.3805
   432.30         36.6792
   432.44         36.8620
   432.58         36.9967
   432.72         37.1320
   432.86         37.2950
   433.00         37.4953
   433.14         37.7294
   433.28         37.9790
   433.42         38.2136
   433.56         38.4015
   433.70         38.5250
   433.84         38.5843
   433.98         38.5924
   434.12         38.5752
   434.26         38.5700
   434.40         38.6088
   434.54         38.7042
   434.68         38.8516
   434.82         39.0370
   434.96         39.2433
   435.10         39.4582
   435.24         39.6815
   435.38         39.9253
   435.52         40.2060
   435.66         40.5354
   435.80         40.9129
   435.94         41.3202
   436.08         41.7224
   436.22         42.0713
   436.36         42.3155
   436.50         42.4133
   436.64         42.3472
   436.78         42.1315
   436.92         41.7946
   437.06         41.3518
   437.20         40.7961
   437.34         40.1177
   437.48         39.3315
   437.62         38.4794
   437.76         37.6122
   437.90         36.7734
   438.04         35.9962
   438.18         35.3103
   438.32         34.7488
   438.46         34.3517
   438.60         34.1585
   438.74         34.1897
   438.88         34.4369
   439.02         34.8694
   439.16         35.4333
   439.30         36.0456
   439.44         36.6030
   439.58         37.0080
   439.72         37.2014
   439.86         37.1819
   440.00         37.0028
   440.14         36.7419
   440.28         36.4635
   440.42         36.2096
   440.56         36.0153
   440.70         35.9170
   440.84         35.9443
   440.98         36.1097
   441.12         36.4037
   441.26         36.7941
   441.40         37.2319
   441.54         37.6648
   441.68         38.0498
   441.82         38.3569
   441.96         38.5749
   442.10         38.7119
   442.24         38.7852
   442.38         38.8107
   442.52         38.8043
   442.66         38.7829
   442.80         38.7604
   442.94         38.7450
   443.08         38.7428
   443.22         38.7640
   443.36         38.8217
   443.50         38.9252
   443.64         39.0784
   443.78         39.2811
   443.92         39.5288
   444.06         39.8089
   444.20         40.0969
   444.34         40.3568
   444.48         40.5475
   444.62         40.6315
   444.76         40.5820
   444.90         40.3887
   445.04         40.0635
   445.18         39.6409
   445.32         39.1670
   445.46         38.6865
   445.60         38.2389
   445.74         37.8648
   445.88         37.6110
   446.02         37.5223
   446.16         37.6270
   446.30         37.9328
   446.44         38.4292
   446.58         39.0884
   446.72         39.8627
   446.86         40.6883
   447.00         41.4956
   447.14         42.2287
   447.28         42.8564
   447.42         43.3701
   447.56         43.7744
   447.70         44.0762
   447.84         44.2841
   447.98         44.4082
   448.12         44.4532
   448.26         44.4205
   448.40         44.3202
   448.54         44.1822
   448.68         44.0466
   448.82         43.9448
   448.96         43.8973
   449.10         43.9244
   449.24         44.0469
   449.38         44.2769
   449.52         44.6177
   449.66         45.0660
   449.80         45.6119
   449.94         46.2303
   450.08         46.8741
   450.22         47.4809
   450.36         47.9903
   450.50         48.3587
   450.64         48.5629
   450.78         48.6012
   450.92         48.4911
   451.06         48.2644
   451.20         47.9566
   451.34         47.5913
   451.48         47.1755
   451.62         46.7096
   451.76         46.1972
   451.90         45.6416
   452.04         45.0416
   452.18         44.3997
   452.32         43.7282
   452.46         43.0550
   452.60         42.4194
   452.74         41.8599
   452.88         41.4106
   453.02         41.1006
   453.16         40.9472
   453.30         40.9512
   453.44         41.0960
   453.58         41.3471
   453.72         41.6610
   453.86         41.9952
   454.00         42.3110
   454.14         42.5754
   454.28         42.7721
   454.42         42.9083
   454.56         43.0082
   454.70         43.1018
   454.84         43.2179
   454.98         43.3794
   455.12         43.5988
   455.26         43.8711
   455.40         44.1788
   455.54         44.5072
   455.68         44.8457
   455.82         45.1830
   455.96         45.5081
   456.10         45.8155
   456.24         46.1031
   456.38         46.3695
   456.52         46.6114
   456.66         46.8193
   456.80         46.9802
   456.94         47.0859
   457.08         47.1336
   457.22         47.1177
