# File HD35215
# Wavelength [nm]    Normalized Amplitude
   349.70         66.1409
   349.84         66.3217
   349.98         66.4905
   350.12         66.6310
   350.26         66.7319
   350.40         66.7895
   350.54         66.8077
   350.68         66.7959
   350.82         66.7691
   350.96         66.7434
   351.10         66.7326
   351.24         66.7434
   351.38         66.7691
   351.52         66.7959
   351.66         66.8077
   351.80         66.7895
   351.94         66.7319
   352.08         66.6310
   352.22         66.4905
   352.36         66.3217
   352.50         66.1409
   352.64         65.9597
   352.78         65.7848
   352.92         65.6223
   353.06         65.4761
   353.20         65.3489
   353.34         65.2439
   353.48         65.1625
   353.62         65.1028
   353.76         65.0639
   353.90         65.0446
   354.04         65.0405
   354.18         65.0428
   354.32         65.0346
   354.46         64.9995
   354.60         64.9288
   354.74         64.8184
   354.88         64.6631
   355.02         64.4569
   355.16         64.1974
   355.30         63.8874
   355.44         63.5367
   355.58         63.1655
   355.72         62.8019
   355.86         62.4740
   356.00         62.2049
   356.14         62.0107
   356.28         61.8979
   356.42         61.8572
   356.56         61.8638
   356.70         61.8864
   356.84         61.8965
   356.98         61.8764
   357.12         61.8167
   357.26         61.7042
   357.40         61.5212
   357.54         61.2523
   357.68         60.8905
   357.82         60.4371
   357.96         59.9004
   358.10         59.3000
   358.24         58.6720
   358.38         58.0605
   358.52         57.5049
   358.66         57.0354
   358.80         56.6750
   358.94         56.4426
   359.08         56.3490
   359.22         56.3937
   359.36         56.5635
   359.50         56.8318
   359.64         57.1612
   359.78         57.5068
   359.92         57.8247
   360.06         58.0810
   360.20         58.2554
   360.34         58.3411
   360.48         58.3456
   360.62         58.2882
   360.76         58.1963
   360.90         58.0987
   361.04         58.0173
   361.18         57.9677
   361.32         57.9622
   361.46         58.0073
   361.60         58.0967
   361.74         58.2082
   361.88         58.3127
   362.02         58.3815
   362.16         58.3861
   362.30         58.2999
   362.44         58.1077
   362.58         57.8103
   362.72         57.4196
   362.86         56.9554
   363.00         56.4498
   363.14         55.9463
   363.28         55.4915
   363.42         55.1281
   363.56         54.8901
   363.70         54.7962
   363.84         54.8458
   363.98         55.0177
   364.12         55.2743
   364.26         55.5741
   364.40         55.8833
   364.54         56.1770
   364.68         56.4360
   364.82         56.6501
   364.96         56.8240
   365.10         56.9726
   365.24         57.1078
   365.38         57.2330
   365.52         57.3522
   365.66         57.4722
   365.80         57.5934
   365.94         57.7051
   366.08         57.7934
   366.22         57.8463
   366.36         57.8507
   366.50         57.7982
   366.64         57.6904
   366.78         57.5391
   366.92         57.3609
   367.06         57.1741
   367.20         56.9987
   367.34         56.8520
   367.48         56.7417
   367.62         56.6648
   367.76         56.6129
   367.90         56.5798
   368.04         56.5620
   368.18         56.5542
   368.32         56.5469
   368.46         56.5274
   368.60         56.4839
   368.74         56.4117
   368.88         56.3111
   369.02         56.1869
   369.16         56.0470
   369.30         55.8946
   369.44         55.7262
   369.58         55.5340
   369.72         55.3120
   369.86         55.0613
   370.00         54.7828
   370.14         54.4728
   370.28         54.1324
   370.42         53.7742
   370.56         53.4194
   370.70         53.0899
   370.84         52.8027
   370.98         52.5706
   371.12         52.4023
   371.26         52.3039
   371.40         52.2779
   371.54         52.3244
   371.68         52.4429
   371.82         52.6292
   371.96         52.8702
   372.10         53.1446
   372.24         53.4238
   372.38         53.6757
   372.52         53.8725
   372.66         53.9963
   372.80         54.0431
   372.94         54.0298
   373.08         53.9928
   373.22         53.9735
   373.36         54.0007
   373.50         54.0833
   373.64         54.2145
   373.78         54.3751
   373.92         54.5329
   374.06         54.6445
   374.20         54.6656
   374.34         54.5680
   374.48         54.3474
   374.62         54.0208
   374.76         53.6328
   374.90         53.2538
   375.04         52.9667
   375.18         52.8505
   375.32         52.9637
   375.46         53.3258
   375.60         53.9051
   375.74         54.6175
   375.88         55.3383
   376.02         55.9271
   376.16         56.2584
   376.30         56.2572
   376.44         55.9146
   376.58         55.2857
   376.72         54.4824
   376.86         53.6577
   377.00         52.9785
   377.14         52.5894
   377.28         52.5880
   377.42         53.0195
   377.56         53.8703
   377.70         55.0681
   377.84         56.4965
   377.98         58.0137
   378.12         59.4623
   378.26         60.6836
   378.40         61.5396
   378.54         61.9291
   378.68         61.7991
   378.82         61.1572
   378.96         60.0751
   379.10         58.6744
   379.24         57.1060
   379.38         55.5335
   379.52         54.1203
   379.66         53.0152
   379.80         52.3356
   379.94         52.1564
   380.08         52.5029
   380.22         53.3463
   380.36         54.6079
   380.50         56.1674
   380.64         57.8685
   380.78         59.5331
   380.92         60.9947
   381.06         62.1352
   381.20         62.8994
   381.34         63.2923
   381.48         63.3660
   381.62         63.1971
   381.76         62.8639
   381.90         62.4262
   382.04         61.9133
   382.18         61.3233
   382.32         60.6298
   382.46         59.7945
   382.60         58.7916
   382.74         57.6278
   382.88         56.3450
   383.02         55.0140
   383.16         53.7297
   383.30         52.6028
   383.44         51.7525
   383.58         51.2917
   383.72         51.2973
   383.86         51.7879
   384.00         52.7250
   384.14         54.0272
   384.28         55.5847
   384.42         57.2683
   384.56         58.9436
   384.70         60.4887
   384.84         61.8149
   384.98         62.8776
   385.12         63.6727
   385.26         64.2287
   385.40         64.5893
   385.54         64.7921
   385.68         64.8625
   385.82         64.8174
   385.96         64.6725
   386.10         64.4466
   386.24         64.1577
   386.38         63.8206
   386.52         63.4516
   386.66         63.0684
   386.80         62.6864
   386.94         62.3126
   387.08         61.9384
   387.22         61.5387
   387.36         61.0756
   387.50         60.5001
   387.64         59.7570
   387.78         58.7982
   387.92         57.6003
   388.06         56.1745
   388.20         54.5703
   388.34         52.8764
   388.48         51.2106
   388.62         49.7063
   388.76         48.4917
   388.90         47.6717
   389.04         47.3168
   389.18         47.4560
   389.32         48.0750
   389.46         49.1164
   389.60         50.4846
   389.74         52.0572
   389.88         53.7050
   390.02         55.3100
   390.16         56.7761
   390.30         58.0408
   390.44         59.0793
   390.58         59.8943
   390.72         60.5064
   390.86         60.9444
   391.00         61.2378
   391.14         61.4110
   391.28         61.4797
   391.42         61.4508
   391.56         61.3239
   391.70         61.0989
   391.84         60.7836
   391.98         60.3934
   392.12         59.9501
   392.26         59.4797
   392.40         59.0125
   392.54         58.5815
   392.68         58.2168
   392.82         57.9407
   392.96         57.7660
   393.10         57.6933
   393.24         57.7143
   393.38         57.8170
   393.52         57.9817
   393.66         58.1805
   393.80         58.3849
   393.94         58.5733
   394.08         58.7304
   394.22         58.8448
   394.36         58.9103
   394.50         58.9251
   394.64         58.8902
   394.78         58.8073
   394.92         58.6761
   395.06         58.4896
   395.20         58.2294
   395.34         57.8648
   395.48         57.3572
   395.62         56.6633
   395.76         55.7409
   395.90         54.5612
   396.04         53.1239
   396.18         51.4704
   396.32         49.6885
   396.46         47.9023
   396.60         46.2429
   396.74         44.8274
   396.88         43.7549
   397.02         43.1010
   397.16         42.9082
   397.30         43.1783
   397.44         43.8721
   397.58         44.9136
   397.72         46.1990
   397.86         47.6143
   398.00         49.0496
   398.14         50.4070
   398.28         51.6100
   398.42         52.6131
   398.56         53.4076
   398.70         54.0157
   398.84         54.4742
   398.98         54.8205
   399.12         55.0804
   399.26         55.2640
   399.40         55.3763
   399.54         55.4221
   399.68         55.4030
   399.82         55.3196
   399.96         55.1762
   400.10         54.9827
   400.24         54.7537
   400.38         54.5096
   400.52         54.2762
   400.66         54.0758
   400.80         53.9212
   400.94         53.8182
   401.08         53.7642
   401.22         53.7423
   401.36         53.7196
   401.50         53.6546
   401.64         53.5120
   401.78         53.2719
   401.92         52.9345
   402.06         52.5208
   402.20         52.0655
   402.34         51.6101
   402.48         51.2012
   402.62         50.8827
   402.76         50.6845
   402.90         50.6203
   403.04         50.6922
   403.18         50.8907
   403.32         51.1921
   403.46         51.5629
   403.60         51.9677
   403.74         52.3735
   403.88         52.7547
   404.02         53.0952
   404.16         53.3907
   404.30         53.6475
   404.44         53.8713
   404.58         54.0585
   404.72         54.1986
   404.86         54.2794
   405.00         54.2930
   405.14         54.2396
   405.28         54.1262
   405.42         53.9642
   405.56         53.7710
   405.70         53.5675
   405.84         53.3710
   405.98         53.1936
   406.12         53.0438
   406.26         52.9229
   406.40         52.8234
   406.54         52.7319
   406.68         52.6348
   406.82         52.5225
   406.96         52.3888
   407.10         52.2312
   407.24         52.0527
   407.38         51.8618
   407.52         51.6689
   407.66         51.4826
   407.80         51.3072
   407.94         51.1420
   408.08         50.9790
   408.22         50.8062
   408.36         50.6083
   408.50         50.3624
   408.64         50.0364
   408.78         49.5907
   408.92         48.9830
   409.06         48.1811
   409.20         47.1755
   409.34         45.9872
   409.48         44.6674
   409.62         43.2929
   409.76         41.9583
   409.90         40.7639
   410.04         39.8027
   410.18         39.1469
   410.32         38.8411
   410.46         38.8994
   410.60         39.3037
   410.74         40.0054
   410.88         40.9307
   411.02         41.9875
   411.16         43.0788
   411.30         44.1179
   411.44         45.0416
   411.58         45.8175
   411.72         46.4425
   411.86         46.9347
   412.00         47.3219
   412.14         47.6299
   412.28         47.8795
   412.42         48.0871
   412.56         48.2636
   412.70         48.4116
   412.84         48.5264
   412.98         48.5990
   413.12         48.6150
   413.26         48.5557
   413.40         48.4063
   413.54         48.1666
   413.68         47.8559
   413.82         47.5091
   413.96         47.1673
   414.10         46.8677
   414.24         46.6380
   414.38         46.4952
   414.52         46.4480
   414.66         46.4982
   414.80         46.6404
   414.94         46.8631
   415.08         47.1462
   415.22         47.4623
   415.36         47.7803
   415.50         48.0694
   415.64         48.3009
   415.78         48.4525
   415.92         48.5181
   416.06         48.5094
   416.20         48.4469
   416.34         48.3505
   416.48         48.2349
   416.62         48.1094
   416.76         47.9787
   416.90         47.8476
   417.04         47.7238
   417.18         47.6133
   417.32         47.5173
   417.46         47.4347
   417.60         47.3632
   417.74         47.2983
   417.88         47.2338
   418.02         47.1614
   418.16         47.0722
   418.30         46.9605
   418.44         46.8282
   418.58         46.6837
   418.72         46.5380
   418.86         46.4016
   419.00         46.2844
   419.14         46.1932
   419.28         46.1313
   419.42         46.1004
   419.56         46.1021
   419.70         46.1351
   419.84         46.1924
   419.98         46.2655
   420.12         46.3456
   420.26         46.4227
   420.40         46.4866
   420.54         46.5297
   420.68         46.5479
   420.82         46.5432
   420.96         46.5211
   421.10         46.4859
   421.24         46.4410
   421.38         46.3881
   421.52         46.3268
   421.66         46.2551
   421.80         46.1721
   421.94         46.0794
   422.08         45.9777
   422.22         45.8672
   422.36         45.7485
   422.50         45.6224
   422.64         45.4899
   422.78         45.3526
   422.92         45.2146
   423.06         45.0813
   423.20         44.9571
   423.34         44.8450
   423.48         44.7461
   423.62         44.6595
   423.76         44.5841
   423.90         44.5216
   424.04         44.4746
   424.18         44.4443
   424.32         44.4280
   424.46         44.4211
   424.60         44.4192
   424.74         44.4186
   424.88         44.4166
   425.02         44.4096
   425.16         44.3943
   425.30         44.3684
   425.44         44.3306
   425.58         44.2780
   425.72         44.2078
   425.86         44.1210
   426.00         44.0235
   426.14         43.9219
   426.28         43.8217
   426.42         43.7276
   426.56         43.6435
   426.70         43.5718
   426.84         43.5147
   426.98         43.4755
   427.12         43.4599
   427.26         43.4717
   427.40         43.5096
   427.54         43.5673
   427.68         43.6359
   427.82         43.7063
   427.96         43.7684
   428.10         43.8118
   428.24         43.8311
   428.38         43.8271
   428.52         43.8044
   428.66         43.7684
   428.80         43.7237
   428.94         43.6729
   429.08         43.6170
   429.22         43.5562
   429.36         43.4912
   429.50         43.4234
   429.64         43.3546
   429.78         43.2855
   429.92         43.2150
   430.06         43.1404
   430.20         43.0591
   430.34         42.9715
   430.48         42.8794
   430.62         42.7850
   430.76         42.6907
   430.90         42.5983
   431.04         42.5074
   431.18         42.4153
   431.32         42.3183
   431.46         42.2096
   431.60         42.0816
   431.74         41.9300
   431.88         41.7551
   432.02         41.5570
   432.16         41.3322
   432.30         41.0736
   432.44         40.7684
   432.58         40.3962
   432.72         39.9303
   432.86         39.3444
   433.00         38.6200
   433.14         37.7555
   433.28         36.7725
   433.42         35.7171
   433.56         34.6530
   433.70         33.6540
   433.84         32.7963
   433.98         32.1481
   434.12         31.7614
   434.26         31.6679
   434.40         31.8754
   434.54         32.3653
   434.68         33.0917
   434.82         33.9885
   434.96         34.9782
   435.10         35.9804
   435.24         36.9213
   435.38         37.7445
   435.52         38.4173
   435.66         38.9329
   435.80         39.3032
   435.94         39.5498
   436.08         39.6954
   436.22         39.7630
   436.36         39.7775
   436.50         39.7634
   436.64         39.7414
   436.78         39.7281
   436.92         39.7350
   437.06         39.7677
   437.20         39.8252
   437.34         39.8989
   437.48         39.9717
   437.62         40.0180
   437.76         40.0100
   437.90         39.9270
   438.04         39.7616
   438.18         39.5191
   438.32         39.2145
   438.46         38.8703
   438.60         38.5164
   438.74         38.1865
   438.88         37.9138
   439.02         37.7227
   439.16         37.6244
   439.30         37.6191
   439.44         37.6975
   439.58         37.8426
   439.72         38.0321
   439.86         38.2411
   440.00         38.4426
   440.14         38.6102
   440.28         38.7271
   440.42         38.7896
   440.56         38.8037
   440.70         38.7765
   440.84         38.7115
   440.98         38.6101
   441.12         38.4752
   441.26         38.3136
   441.40         38.1341
   441.54         37.9471
   441.68         37.7632
   441.82         37.5920
   441.96         37.4395
   442.10         37.3079
   442.24         37.1962
   442.38         37.1016
   442.52         37.0204
   442.66         36.9493
   442.80         36.8885
   442.94         36.8441
   443.08         36.8245
   443.22         36.8359
   443.36         36.8833
   443.50         36.9692
   443.64         37.0904
   443.78         37.2384
   443.92         37.4022
   444.06         37.5683
   444.20         37.7220
   444.34         37.8485
   444.48         37.9356
   444.62         37.9759
   444.76         37.9701
   444.90         37.9266
   445.04         37.8578
   445.18         37.7781
   445.32         37.6998
   445.46         37.6292
   445.60         37.5620
   445.74         37.4833
   445.88         37.3698
   446.02         37.1963
   446.16         36.9447
   446.30         36.6127
   446.44         36.2169
   446.58         35.7872
   446.72         35.3583
   446.86         34.9633
   447.00         34.6313
   447.14         34.3852
   447.28         34.2425
   447.42         34.2136
   447.56         34.2977
   447.70         34.4813
   447.84         34.7408
   447.98         35.0467
   448.12         35.3680
   448.26         35.6760
   448.40         35.9506
   448.54         36.1827
   448.68         36.3744
   448.82         36.5342
   448.96         36.6692
   449.10         36.7808
   449.24         36.8644
   449.38         36.9135
   449.52         36.9253
   449.66         36.9025
   449.80         36.8520
   449.94         36.7807
   450.08         36.6943
   450.22         36.5978
   450.36         36.4983
   450.50         36.4042
   450.64         36.3240
   450.78         36.2640
   450.92         36.2266
   451.06         36.2116
   451.20         36.2157
   451.34         36.2313
   451.48         36.2486
   451.62         36.2590
   451.76         36.2571
   451.90         36.2383
   452.04         36.1990
   452.18         36.1375
   452.32         36.0553
   452.46         35.9565
   452.60         35.8465
   452.74         35.7327
   452.88         35.6243
   453.02         35.5302
   453.16         35.4575
   453.30         35.4120
   453.44         35.3964
   453.58         35.4088
   453.72         35.4441
   453.86         35.4951
   454.00         35.5534
   454.14         35.6099
   454.28         35.6566
   454.42         35.6888
   454.56         35.7039
   454.70         35.6998
   454.84         35.6755
   454.98         35.6324
   455.12         35.5741
   455.26         35.5063
   455.40         35.4345
   455.54         35.3608
   455.68         35.2837
   455.82         35.2000
   455.96         35.1064
   456.10         34.9988
   456.24         34.8742
   456.38         34.7323
   456.52         34.5774
   456.66         34.4187
   456.80         34.2673
   456.94         34.1345
