# File HD35619
# Wavelength [nm]    Normalized Amplitude
   349.70         374.9208
   349.84         375.9820
   349.98         376.5590
   350.12         376.5336
   350.26         375.9028
   350.40         374.7995
   350.54         373.4359
   350.68         372.0359
   350.82         370.8133
   350.96         369.9689
   351.10         369.6653
   351.24         369.9689
   351.38         370.8133
   351.52         372.0359
   351.66         373.4359
   351.80         374.7995
   351.94         375.9028
   352.08         376.5336
   352.22         376.5590
   352.36         375.9820
   352.50         374.9208
   352.64         373.5329
   352.78         371.9809
   352.92         370.4303
   353.06         369.0152
   353.20         367.8241
   353.34         366.9076
   353.48         366.2835
   353.62         365.9268
   353.76         365.7413
   353.90         365.5651
   354.04         365.2375
   354.18         364.6544
   354.32         363.7757
   354.46         362.6097
   354.60         361.2070
   354.74         359.6732
   354.88         358.1570
   355.02         356.8009
   355.16         355.7156
   355.30         354.9738
   355.44         354.5985
   355.58         354.5938
   355.72         354.9673
   355.86         355.6960
   356.00         356.6839
   356.14         357.7691
   356.28         358.7541
   356.42         359.4273
   356.56         359.6041
   356.70         359.1684
   356.84         358.0768
   356.98         356.3375
   357.12         353.9925
   357.26         351.1280
   357.40         347.8871
   357.54         344.4465
   357.68         340.9910
   357.82         337.7208
   357.96         334.8508
   358.10         332.5710
   358.24         331.0115
   358.38         330.2076
   358.52         330.0715
   358.66         330.4308
   358.80         331.0915
   358.94         331.8804
   359.08         332.6552
   359.22         333.3017
   359.36         333.7443
   359.50         333.9505
   359.64         333.9284
   359.78         333.7160
   359.92         333.3765
   360.06         332.9950
   360.20         332.6490
   360.34         332.3851
   360.48         332.2166
   360.62         332.1091
   360.76         331.9780
   360.90         331.7286
   361.04         331.2922
   361.18         330.6483
   361.32         329.8339
   361.46         328.9255
   361.60         328.0199
   361.74         327.2044
   361.88         326.5405
   362.02         326.0686
   362.16         325.7801
   362.30         325.6140
   362.44         325.5043
   362.58         325.4059
   362.72         325.2966
   362.86         325.1698
   363.00         325.0289
   363.14         324.8944
   363.28         324.8079
   363.42         324.8183
   363.56         324.9564
   363.70         325.2350
   363.84         325.6639
   363.98         326.2195
   364.12         326.8264
   364.26         327.4098
   364.40         327.9241
   364.54         328.3338
   364.68         328.6159
   364.82         328.7772
   364.96         328.8510
   365.10         328.8461
   365.24         328.7126
   365.38         328.4000
   365.52         327.8823
   365.66         327.1395
   365.80         326.1647
   365.94         324.9673
   366.08         323.5886
   366.22         322.1236
   366.36         320.7018
   366.50         319.4203
   366.64         318.3339
   366.78         317.5125
   366.92         317.0455
   367.06         316.9624
   367.20         317.1924
   367.34         317.6107
   367.48         318.0755
   367.62         318.4622
   367.76         318.7109
   367.90         318.8349
   368.04         318.8846
   368.18         318.8924
   368.32         318.8692
   368.46         318.8338
   368.60         318.8164
   368.74         318.8407
   368.88         318.8843
   369.02         318.8540
   369.16         318.6227
   369.30         318.1063
   369.44         317.2845
   369.58         316.1636
   369.72         314.7735
   369.86         313.1891
   370.00         311.5243
   370.14         309.9096
   370.28         308.4737
   370.42         307.3010
   370.56         306.4042
   370.70         305.7603
   370.84         305.3419
   370.98         305.0999
   371.12         304.9626
   371.26         304.8678
   371.40         304.7836
   371.54         304.7041
   371.68         304.6451
   371.82         304.6445
   371.96         304.7186
   372.10         304.8141
   372.24         304.8300
   372.38         304.6775
   372.52         304.3160
   372.66         303.7574
   372.80         303.0578
   372.94         302.2963
   373.08         301.5592
   373.22         300.9227
   373.36         300.4335
   373.50         300.0935
   373.64         299.8501
   373.78         299.6147
   373.92         299.3020
   374.06         298.8381
   374.20         298.1376
   374.34         297.1191
   374.48         295.7266
   374.62         293.9078
   374.76         291.6605
   374.90         289.1315
   375.04         286.5948
   375.18         284.3321
   375.32         282.5472
   375.46         281.3340
   375.60         280.6703
   375.74         280.4286
   375.88         280.4116
   376.02         280.4210
   376.16         280.3298
   376.30         280.1186
   376.44         279.8844
   376.58         279.8127
   376.72         280.1064
   376.86         280.9123
   377.00         282.3110
   377.14         284.3368
   377.28         287.0011
   377.42         290.3222
   377.56         294.2937
   377.70         298.7869
   377.84         303.5023
   377.98         308.0273
   378.12         311.9377
   378.26         314.8586
   378.40         316.4939
   378.54         316.6667
   378.68         315.3680
   378.82         312.7581
   378.96         309.1162
   379.10         304.7960
   379.24         300.1973
   379.38         295.7451
   379.52         291.8720
   379.66         288.9826
   379.80         287.4018
   379.94         287.3204
   380.08         288.7560
   380.22         291.5371
   380.36         295.3185
   380.50         299.6377
   380.64         304.0004
   380.78         307.9656
   380.92         311.1945
   381.06         313.4768
   381.20         314.7565
   381.34         315.1290
   381.48         314.7841
   381.62         313.9321
   381.76         312.7548
   381.90         311.3614
   382.04         309.7508
   382.18         307.8134
   382.32         305.3958
   382.46         302.4010
   382.60         298.8571
   382.74         294.9160
   382.88         290.8079
   383.02         286.8027
   383.16         283.2019
   383.30         280.3154
   383.44         278.4308
   383.58         277.7591
   383.72         278.3608
   383.86         280.1305
   384.00         282.8594
   384.14         286.2704
   384.28         290.0041
   384.42         293.6542
   384.56         296.8502
   384.70         299.3338
   384.84         301.0073
   384.98         301.9452
   385.12         302.3321
   385.26         302.3619
   385.40         302.1773
   385.54         301.8599
   385.68         301.4619
   385.82         301.0210
   385.96         300.5386
   386.10         299.9843
   386.24         299.3301
   386.38         298.5675
   386.52         297.7057
   386.66         296.7607
   386.80         295.7162
   386.94         294.5194
   387.08         293.1208
   387.22         291.4771
   387.36         289.5112
   387.50         287.0942
   387.64         284.0879
   387.78         280.4182
   387.92         276.1435
   388.06         271.4793
   388.20         266.7567
   388.34         262.3577
   388.48         258.6488
   388.62         255.9522
   388.76         254.5296
   388.90         254.5278
   389.04         255.9319
   389.18         258.5793
   389.32         262.2156
   389.46         266.5359
   389.60         271.2052
   389.74         275.8761
   389.88         280.2149
   390.02         283.9486
   390.16         286.9199
   390.30         289.1157
   390.44         290.6328
   390.58         291.5951
   390.72         292.0822
   390.86         292.1134
   391.00         291.6741
   391.14         290.7494
   391.28         289.3593
   391.42         287.5802
   391.56         285.5468
   391.70         283.4357
   391.84         281.4216
   391.98         279.6327
   392.12         278.1334
   392.26         276.9442
   392.40         276.0659
   392.54         275.4869
   392.68         275.1868
   392.82         275.1428
   392.96         275.3288
   393.10         275.7039
   393.24         276.2131
   393.38         276.8114
   393.52         277.4739
   393.66         278.1810
   393.80         278.9045
   393.94         279.6182
   394.08         280.2993
   394.22         280.9007
   394.36         281.3373
   394.50         281.5140
   394.64         281.3644
   394.78         280.8662
   394.92         280.0374
   395.06         278.8969
   395.20         277.4278
   395.34         275.5683
   395.48         273.1988
   395.62         270.1500
   395.76         266.2646
   395.90         261.4965
   396.04         255.9787
   396.18         250.0061
   396.32         243.9775
   396.46         238.3391
   396.60         233.5357
   396.74         229.9568
   396.88         227.8806
   397.02         227.4409
   397.16         228.6141
   397.30         231.2305
   397.44         235.0056
   397.58         239.5664
   397.72         244.4777
   397.86         249.2939
   398.00         253.6172
   398.14         257.1592
   398.28         259.7915
   398.42         261.5504
   398.56         262.5918
   398.70         263.1144
   398.84         263.2931
   398.98         263.2424
   399.12         263.0101
   399.26         262.6121
   399.40         262.0678
   399.54         261.3968
   399.68         260.6171
   399.82         259.7660
   399.96         258.9112
   400.10         258.1257
   400.24         257.4604
   400.38         256.9430
   400.52         256.5903
   400.66         256.3998
   400.80         256.3319
   400.94         256.2999
   401.08         256.1716
   401.22         255.7843
   401.36         254.9862
   401.50         253.6841
   401.64         251.8635
   401.78         249.6028
   401.92         247.0724
   402.06         244.4941
   402.20         242.0920
   402.34         240.0728
   402.48         238.6095
   402.62         237.8153
   402.76         237.7246
   402.90         238.2952
   403.04         239.4221
   403.18         240.9495
   403.32         242.6765
   403.46         244.3835
   403.60         245.8785
   403.74         247.0325
   403.88         247.8088
   404.02         248.2694
   404.16         248.5184
   404.30         248.6397
   404.44         248.6872
   404.58         248.6838
   404.72         248.6243
   404.86         248.4931
   405.00         248.2769
   405.14         247.9571
   405.28         247.5146
   405.42         246.9381
   405.56         246.2130
   405.70         245.3271
   405.84         244.2782
   405.98         243.0795
   406.12         241.7675
   406.26         240.3993
   406.40         239.0426
   406.54         237.7676
   406.68         236.6312
   406.82         235.6698
   406.96         234.9116
   407.10         234.3734
   407.24         234.0484
   407.38         233.9055
   407.52         233.8935
   407.66         233.9341
   407.80         233.9387
   407.94         233.8481
   408.08         233.6274
   408.22         233.2362
   408.36         232.6212
   408.50         231.7129
   408.64         230.4174
   408.78         228.6181
   408.92         226.1990
   409.06         223.1064
   409.20         219.4065
   409.34         215.2887
   409.48         211.0316
   409.62         206.9578
   409.76         203.3947
   409.90         200.6478
   410.04         198.9602
   410.18         198.4764
   410.32         199.2354
   410.46         201.1775
   410.60         204.1303
   410.74         207.7984
   410.88         211.8120
   411.02         215.8033
   411.16         219.4598
   411.30         222.5554
   411.44         224.9763
   411.58         226.7338
   411.72         227.9497
   411.86         228.7924
   412.00         229.4063
   412.14         229.8855
   412.28         230.2739
   412.42         230.5774
   412.56         230.7816
   412.70         230.8645
   412.84         230.8077
   412.98         230.5958
   413.12         230.2090
   413.26         229.6293
   413.40         228.8621
   413.54         227.9516
   413.68         226.9617
   413.82         225.9488
   413.96         224.9566
   414.10         224.0230
   414.24         223.1848
   414.38         222.4711
   414.52         221.8998
   414.66         221.4800
   414.80         221.2060
   414.94         221.0501
   415.08         220.9743
   415.22         220.9489
   415.36         220.9542
   415.50         220.9647
   415.64         220.9508
   415.78         220.8999
   415.92         220.8174
   416.06         220.7090
   416.20         220.5703
   416.34         220.3949
   416.48         220.1877
   416.62         219.9638
   416.76         219.7383
   416.90         219.5236
   417.04         219.3332
   417.18         219.1769
   417.32         219.0401
   417.46         218.8798
   417.60         218.6505
   417.74         218.3186
   417.88         217.8576
   418.02         217.2490
   418.16         216.4913
   418.30         215.6055
   418.44         214.6246
   418.58         213.5650
   418.72         212.4193
   418.86         211.1809
   419.00         209.8675
   419.14         208.5210
   419.28         207.1899
   419.42         205.9252
   419.56         204.7893
   419.70         203.8505
   419.84         203.1621
   419.98         202.7555
   420.12         202.6556
   420.26         202.8823
   420.40         203.4347
   420.54         204.2833
   420.68         205.3589
   420.82         206.5518
   420.96         207.7355
   421.10         208.7855
   421.24         209.5915
   421.38         210.0873
   421.52         210.2720
   421.66         210.1965
   421.80         209.9350
   421.94         209.5610
   422.08         209.1357
   422.22         208.7097
   422.36         208.3198
   422.50         207.9915
   422.64         207.7407
   422.78         207.5685
   422.92         207.4549
   423.06         207.3646
   423.20         207.2562
   423.34         207.0914
   423.48         206.8525
   423.62         206.5373
   423.76         206.1375
   423.90         205.6485
   424.04         205.0893
   424.18         204.4975
   424.32         203.9195
   424.46         203.4007
   424.60         202.9670
   424.74         202.6195
   424.88         202.3504
   425.02         202.1510
   425.16         202.0031
   425.30         201.8688
   425.44         201.7022
   425.58         201.4702
   425.72         201.1564
   425.86         200.7520
   426.00         200.2515
   426.14         199.6548
   426.28         198.9775
   426.42         198.2588
   426.56         197.5534
   426.70         196.9091
   426.84         196.3545
   426.98         195.9029
   427.12         195.5541
   427.26         195.2979
   427.40         195.1322
   427.54         195.0715
   427.68         195.1257
   427.82         195.2833
   427.96         195.5275
   428.10         195.8480
   428.24         196.2351
   428.38         196.6688
   428.52         197.1174
   428.66         197.5474
   428.80         197.9366
   428.94         198.2727
   429.08         198.5383
   429.22         198.7072
   429.36         198.7550
   429.50         198.6660
   429.64         198.4371
   429.78         198.0830
   429.92         197.6388
   430.06         197.1494
   430.20         196.6499
   430.34         196.1547
   430.48         195.6703
   430.62         195.2072
   430.76         194.7779
   430.90         194.3965
   431.04         194.0693
   431.18         193.7894
   431.32         193.5472
   431.46         193.3345
   431.60         193.1394
   431.74         192.9441
   431.88         192.7193
   432.02         192.4199
   432.16         191.9970
   432.30         191.4050
   432.44         190.5878
   432.58         189.4570
   432.72         187.8883
   432.86         185.7678
   433.00         183.0547
   433.14         179.8185
   433.28         176.2381
   433.42         172.5691
   433.56         169.0966
   433.70         166.0944
   433.84         163.8019
   433.98         162.4085
   434.12         162.0248
   434.26         162.6605
   434.40         164.2264
   434.54         166.5503
   434.68         169.4074
   434.82         172.5528
   434.96         175.7387
   435.10         178.7374
   435.24         181.3670
   435.38         183.5158
   435.52         185.1634
   435.66         186.3657
   435.80         187.2153
   435.94         187.8047
   436.08         188.2048
   436.22         188.4661
   436.36         188.6231
   436.50         188.6929
   436.64         188.6772
   436.78         188.5672
   436.92         188.3553
   437.06         188.0445
   437.20         187.6399
   437.34         187.1422
   437.48         186.5540
   437.62         185.8813
   437.76         185.1320
   437.90         184.3192
   438.04         183.4740
   438.18         182.6525
   438.32         181.9233
   438.46         181.3455
   438.60         180.9500
   438.74         180.7366
   438.88         180.6854
   439.02         180.7669
   439.16         180.9424
   439.30         181.1654
   439.44         181.3862
   439.58         181.5578
   439.72         181.6387
   439.86         181.5951
   440.00         181.4103
   440.14         181.0843
   440.28         180.6284
   440.42         180.0667
   440.56         179.4368
   440.70         178.7751
   440.84         178.1039
   440.98         177.4301
   441.12         176.7497
   441.26         176.0578
   441.40         175.3568
   441.54         174.6564
   441.68         173.9632
   441.82         173.2731
   441.96         172.5746
   442.10         171.8664
   442.24         171.1705
   442.38         170.5223
   442.52         169.9553
   442.66         169.4960
   442.80         169.1661
   442.94         168.9863
   443.08         168.9706
   443.22         169.1171
   443.36         169.4021
   443.50         169.7858
   443.64         170.2245
   443.78         170.6801
   443.92         171.1252
   444.06         171.5419
   444.20         171.9182
   444.34         172.2451
   444.48         172.5142
   444.62         172.7173
   444.76         172.8573
   444.90         172.9496
   445.04         173.0064
   445.18         173.0311
   445.32         173.0211
   445.46         172.9690
   445.60         172.8472
   445.74         172.5994
   445.88         172.1578
   446.02         171.4703
   446.16         170.5270
   446.30         169.3696
   446.44         168.0762
   446.58         166.7421
   446.72         165.4619
   446.86         164.3163
   447.00         163.3729
   447.14         162.6872
   447.28         162.2969
   447.42         162.2141
   447.56         162.4178
   447.70         162.8536
   447.84         163.4409
   447.98         164.0945
   448.12         164.7349
   448.26         165.2949
   448.40         165.7390
   448.54         166.0727
   448.68         166.3261
   448.82         166.5360
   448.96         166.7292
   449.10         166.9117
   449.24         167.0765
   449.38         167.2134
   449.52         167.3106
   449.66         167.3568
   449.80         167.3415
   449.94         167.2508
   450.08         167.0725
   450.22         166.8076
   450.36         166.4736
   450.50         166.0959
   450.64         165.7052
   450.78         165.3314
   450.92         164.9951
   451.06         164.7109
   451.20         164.4913
   451.34         164.3425
   451.48         164.2592
   451.62         164.2258
   451.76         164.2206
   451.90         164.2212
   452.04         164.1998
   452.18         164.1249
   452.32         163.9743
   452.46         163.7336
   452.60         163.3903
   452.74         162.9285
   452.88         162.3264
