# File HD39136
# Wavelength [nm]    Normalized Amplitude
   349.70         62.1448
   349.84         62.2195
   349.98         62.2911
   350.12         62.3583
   350.26         62.4146
   350.40         62.4531
   350.54         62.4721
   350.68         62.4757
   350.82         62.4719
   350.96         62.4674
   351.10         62.4656
   351.24         62.4674
   351.38         62.4719
   351.52         62.4757
   351.66         62.4721
   351.80         62.4531
   351.94         62.4146
   352.08         62.3583
   352.22         62.2911
   352.36         62.2195
   352.50         62.1448
   352.64         62.0621
   352.78         61.9664
   352.92         61.8605
   353.06         61.7573
   353.20         61.6712
   353.34         61.6144
   353.48         61.5941
   353.62         61.6076
   353.76         61.6430
   353.90         61.6822
   354.04         61.7057
   354.18         61.6952
   354.32         61.6355
   354.46         61.5201
   354.60         61.3520
   354.74         61.1400
   354.88         60.9002
   355.02         60.6548
   355.16         60.4278
   355.30         60.2429
   355.44         60.1182
   355.58         60.0678
   355.72         60.0972
   355.86         60.1939
   356.00         60.3285
   356.14         60.4627
   356.28         60.5566
   356.42         60.5792
   356.56         60.5151
   356.70         60.3650
   356.84         60.1407
   356.98         59.8624
   357.12         59.5554
   357.26         59.2459
   357.40         58.9590
   357.54         58.7167
   357.68         58.5324
   357.82         58.4068
   357.96         58.3351
   358.10         58.3096
   358.24         58.3147
   358.38         58.3242
   358.52         58.3090
   358.66         58.2510
   358.80         58.1466
   358.94         58.0018
   359.08         57.8310
   359.22         57.6524
   359.36         57.4830
   359.50         57.3323
   359.64         57.2062
   359.78         57.1091
   359.92         57.0434
   360.06         57.0104
   360.20         57.0098
   360.34         57.0381
   360.48         57.0883
   360.62         57.1488
   360.76         57.2047
   360.90         57.2416
   361.04         57.2542
   361.18         57.2465
   361.32         57.2247
   361.46         57.1931
   361.60         57.1547
   361.74         57.1141
   361.88         57.0782
   362.02         57.0546
   362.16         57.0434
   362.30         57.0363
   362.44         57.0237
   362.58         56.9998
   362.72         56.9641
   362.86         56.9189
   363.00         56.8669
   363.14         56.8108
   363.28         56.7536
   363.42         56.7012
   363.56         56.6638
   363.70         56.6547
   363.84         56.6839
   363.98         56.7539
   364.12         56.8574
   364.26         56.9798
   364.40         57.1058
   364.54         57.2193
   364.68         57.3017
   364.82         57.3375
   364.96         57.3259
   365.10         57.2794
   365.24         57.2106
   365.38         57.1291
   365.52         57.0443
   365.66         56.9606
   365.80         56.8758
   365.94         56.7873
   366.08         56.6977
   366.22         56.6156
   366.36         56.5490
   366.50         56.4956
   366.64         56.4449
   366.78         56.3890
   366.92         56.3280
   367.06         56.2699
   367.20         56.2268
   367.34         56.2107
   367.48         56.2274
   367.62         56.2741
   367.76         56.3451
   367.90         56.4330
   368.04         56.5322
   368.18         56.6387
   368.32         56.7513
   368.46         56.8722
   368.60         57.0024
   368.74         57.1373
   368.88         57.2673
   369.02         57.3795
   369.16         57.4575
   369.30         57.4878
   369.44         57.4693
   369.58         57.4151
   369.72         57.3497
   369.86         57.2926
   370.00         57.2421
   370.14         57.1791
   370.28         57.0915
   370.42         56.9880
   370.56         56.8947
   370.70         56.8423
   370.84         56.8475
   370.98         56.8998
   371.12         56.9676
   371.26         57.0217
   371.40         57.0586
   371.54         57.1058
   371.68         57.2089
   371.82         57.4180
   371.96         57.7665
   372.10         58.2491
   372.24         58.8175
   372.38         59.3967
   372.52         59.9130
   372.66         60.3273
   372.80         60.6505
   372.94         60.9363
   373.08         61.2548
   373.22         61.6620
   373.36         62.1811
   373.50         62.7940
   373.64         63.4482
   373.78         64.0718
   373.92         64.5928
   374.06         64.9551
   374.20         65.1239
   374.34         65.0897
   374.48         64.8704
   374.62         64.5028
   374.76         64.0569
   374.90         63.6525
   375.04         63.4338
   375.18         63.5278
   375.32         64.0057
   375.46         64.8611
   375.60         66.0055
   375.74         67.2706
   375.88         68.4308
   376.02         69.2590
   376.16         69.5865
   376.30         69.3495
   376.44         68.6114
   376.58         67.5494
   376.72         66.4115
   376.86         65.4608
   377.00         64.9265
   377.14         64.9695
   377.28         65.6675
   377.42         67.0206
   377.56         68.9518
   377.70         71.3123
   377.84         73.9038
   377.98         76.4972
   378.12         78.8481
   378.26         80.7151
   378.40         81.8901
   378.54         82.2362
   378.68         81.7151
   378.82         80.3938
   378.96         78.4301
   379.10         76.0466
   379.24         73.5030
   379.38         71.0705
   379.52         69.0055
   379.66         67.5188
   379.80         66.7616
   379.94         66.8220
   380.08         67.7147
   380.22         69.3706
   380.36         71.6328
   380.50         74.2711
   380.64         77.0114
   380.78         79.5745
   380.92         81.7279
   381.06         83.3280
   381.20         84.3331
   381.34         84.7930
   381.48         84.8152
   381.62         84.5172
   381.76         83.9933
   381.90         83.2989
   382.04         82.4424
   382.18         81.3862
   382.32         80.0684
   382.46         78.4484
   382.60         76.5368
   382.74         74.3993
   382.88         72.1500
   383.02         69.9405
   383.16         67.9492
   383.30         66.3611
   383.44         65.3482
   383.58         65.0467
   383.72         65.5269
   383.86         66.7721
   384.00         68.6774
   384.14         71.0662
   384.28         73.7214
   384.42         76.4199
   384.56         78.9604
   384.70         81.1837
   384.84         82.9895
   384.98         84.3509
   385.12         85.3117
   385.26         85.9556
   385.40         86.3647
   385.54         86.5940
   385.68         86.6745
   385.82         86.6270
   385.96         86.4689
   386.10         86.2142
   386.24         85.8736
   386.38         85.4595
   386.52         84.9857
   386.66         84.4635
   386.80         83.8980
   386.94         83.2855
   387.08         82.6106
   387.22         81.8399
   387.36         80.9141
   387.50         79.7555
   387.64         78.2888
   387.78         76.4702
   387.92         74.3083
   388.06         71.8733
   388.20         69.2986
   388.34         66.7695
   388.48         64.4980
   388.62         62.6880
   388.76         61.5087
   388.90         61.0771
   389.04         61.4424
   389.18         62.5773
   389.32         64.3807
   389.46         66.6912
   389.60         69.3105
   389.74         72.0283
   389.88         74.6446
   390.02         76.9935
   390.16         78.9645
   390.30         80.5156
   390.44         81.6681
   390.58         82.4803
   390.72         83.0195
   390.86         83.3480
   391.00         83.5168
   391.14         83.5617
   391.28         83.5034
   391.42         83.3554
   391.56         83.1303
   391.70         82.8423
   391.84         82.5076
   391.98         82.1390
   392.12         81.7447
   392.26         81.3359
   392.40         80.9326
   392.54         80.5578
   392.68         80.2307
   392.82         79.9677
   392.96         79.7860
   393.10         79.6993
   393.24         79.7129
   393.38         79.8251
   393.52         80.0268
   393.66         80.3019
   393.80         80.6242
   393.94         80.9618
   394.08         81.2829
   394.22         81.5569
   394.36         81.7515
   394.50         81.8333
   394.64         81.7727
   394.78         81.5531
   394.92         81.1758
   395.06         80.6467
   395.20         79.9575
   395.34         79.0848
   395.48         77.9923
   395.62         76.6310
   395.76         74.9520
   395.90         72.9333
   396.04         70.6060
   396.18         68.0616
   396.32         65.4435
   396.46         62.9234
   396.60         60.6795
   396.74         58.8804
   396.88         57.6651
   397.02         57.1243
   397.16         57.2906
   397.30         58.1366
   397.44         59.5818
   397.58         61.4967
   397.72         63.7093
   397.86         66.0265
   398.00         68.2626
   398.14         70.2637
   398.28         71.9287
   398.42         73.2216
   398.56         74.1636
   398.70         74.8135
   398.84         75.2441
   398.98         75.5216
   399.12         75.6939
   399.26         75.7918
   399.40         75.8328
   399.54         75.8216
   399.68         75.7534
   399.82         75.6220
   399.96         75.4319
   400.10         75.1983
   400.24         74.9358
   400.38         74.6580
   400.52         74.3822
   400.66         74.1279
   400.80         73.9105
   400.94         73.7347
   401.08         73.5869
   401.22         73.4347
   401.36         73.2367
   401.50         72.9526
   401.64         72.5544
   401.78         72.0390
   401.92         71.4314
   402.06         70.7780
   402.20         70.1392
   402.34         69.5819
   402.48         69.1702
   402.62         68.9548
   402.76         68.9602
   402.90         69.1806
   403.04         69.5869
   403.18         70.1323
   403.32         70.7551
   403.46         71.3872
   403.60         71.9648
   403.74         72.4373
   403.88         72.7779
   404.02         72.9882
   404.16         73.0885
   404.30         73.1092
   404.44         73.0843
   404.58         73.0419
   404.72         72.9980
   404.86         72.9599
   405.00         72.9277
   405.14         72.8973
   405.28         72.8646
   405.42         72.8274
   405.56         72.7843
   405.70         72.7344
   405.84         72.6772
   405.98         72.6098
   406.12         72.5281
   406.26         72.4292
   406.40         72.3112
   406.54         72.1745
   406.68         72.0212
   406.82         71.8554
   406.96         71.6848
   407.10         71.5153
   407.24         71.3451
   407.38         71.1676
   407.52         70.9759
   407.66         70.7636
   407.80         70.5256
   407.94         70.2585
   408.08         69.9553
   408.22         69.5985
   408.36         69.1580
   408.50         68.5945
   408.64         67.8614
   408.78         66.9087
   408.92         65.6908
   409.06         64.1814
   409.20         62.3920
   409.34         60.3843
   409.48         58.2674
   409.62         56.1824
   409.76         54.2837
   409.90         52.7243
   410.04         51.6392
   410.18         51.1259
   410.32         51.2332
   410.46         51.9527
   410.60         53.2180
   410.74         54.9116
   410.88         56.8789
   411.02         58.9500
   411.16         60.9637
   411.30         62.7844
   411.44         64.3146
   411.58         65.5065
   411.72         66.3655
   411.86         66.9350
   412.00         67.2765
   412.14         67.4531
   412.28         67.5211
   412.42         67.5308
   412.56         67.5236
   412.70         67.5251
   412.84         67.5421
   412.98         67.5640
   413.12         67.5664
   413.26         67.5213
   413.40         67.4107
   413.54         67.2343
   413.68         67.0082
   413.82         66.7593
   413.96         66.5156
   414.10         66.2983
   414.24         66.1244
   414.38         66.0102
   414.52         65.9709
   414.66         66.0169
   414.80         66.1460
   414.94         66.3400
   415.08         66.5657
   415.22         66.7834
   415.36         66.9575
   415.50         67.0630
   415.64         67.0888
   415.78         67.0392
   415.92         66.9328
   416.06         66.7979
   416.20         66.6622
   416.34         66.5456
   416.48         66.4608
   416.62         66.4113
   416.76         66.3940
   416.90         66.4035
   417.04         66.4333
   417.18         66.4745
   417.32         66.5130
   417.46         66.5335
   417.60         66.5273
   417.74         66.4906
   417.88         66.4215
   418.02         66.3204
   418.16         66.1913
   418.30         66.0420
   418.44         65.8809
   418.58         65.7142
   418.72         65.5481
   418.86         65.3874
   419.00         65.2355
   419.14         65.0941
   419.28         64.9614
   419.42         64.8347
   419.56         64.7144
   419.70         64.6026
   419.84         64.5010
   419.98         64.4095
   420.12         64.3295
   420.26         64.2627
   420.40         64.2075
   420.54         64.1628
   420.68         64.1267
   420.82         64.0939
   420.96         64.0553
   421.10         64.0014
   421.24         63.9260
   421.38         63.8292
   421.52         63.7156
   421.66         63.5930
   421.80         63.4704
   421.94         63.3537
   422.08         63.2452
   422.22         63.1460
   422.36         63.0577
   422.50         62.9824
   422.64         62.9227
   422.78         62.8789
   422.92         62.8465
   423.06         62.8181
   423.20         62.7875
   423.34         62.7501
   423.48         62.7056
   423.62         62.6564
   423.76         62.6030
   423.90         62.5438
   424.04         62.4788
   424.18         62.4092
   424.32         62.3363
   424.46         62.2606
   424.60         62.1815
   424.74         62.0982
   424.88         62.0096
   425.02         61.9133
   425.16         61.8045
   425.30         61.6782
   425.44         61.5296
   425.58         61.3530
   425.72         61.1473
   425.86         60.9196
   426.00         60.6820
   426.14         60.4467
   426.28         60.2267
   426.42         60.0355
   426.56         59.8829
   426.70         59.7732
   426.84         59.7043
   426.98         59.6691
   427.12         59.6589
   427.26         59.6642
   427.40         59.6754
   427.54         59.6858
   427.68         59.6913
   427.82         59.6887
   427.96         59.6785
   428.10         59.6658
   428.24         59.6599
   428.38         59.6720
   428.52         59.7096
   428.66         59.7721
   428.80         59.8549
   428.94         59.9525
   429.08         60.0554
   429.22         60.1503
   429.36         60.2236
   429.50         60.2648
   429.64         60.2662
   429.78         60.2248
   429.92         60.1451
   430.06         60.0381
   430.20         59.9162
   430.34         59.7881
   430.48         59.6600
   430.62         59.5395
   430.76         59.4329
   430.90         59.3420
   431.04         59.2629
   431.18         59.1885
   431.32         59.1104
   431.46         59.0194
   431.60         58.9041
   431.74         58.7523
   431.88         58.5536
   432.02         58.2976
   432.16         57.9721
   432.30         57.5619
   432.44         57.0453
   432.58         56.3914
   432.72         55.5589
   432.86         54.5055
   433.00         53.2092
   433.14         51.6872
   433.28         50.0010
   433.42         48.2468
   433.56         46.5393
   433.70         44.9997
   433.84         43.7452
   433.98         42.8758
   434.12         42.4601
   434.26         42.5251
   434.40         43.0550
   434.54         43.9959
   434.68         45.2623
   434.82         46.7475
   434.96         48.3353
   435.10         49.9119
   435.24         51.3795
   435.38         52.6665
   435.52         53.7367
   435.66         54.5889
   435.80         55.2454
   435.94         55.7384
   436.08         56.0981
   436.22         56.3503
   436.36         56.5181
   436.50         56.6211
   436.64         56.6735
   436.78         56.6866
   436.92         56.6728
   437.06         56.6463
   437.20         56.6189
   437.34         56.5935
   437.48         56.5607
   437.62         56.5015
   437.76         56.3968
   437.90         56.2374
   438.04         56.0282
   438.18         55.7867
   438.32         55.5380
   438.46         55.3078
   438.60         55.1170
   438.74         54.9797
   438.88         54.9042
   439.02         54.8924
   439.16         54.9407
   439.30         55.0402
   439.44         55.1767
   439.58         55.3300
   439.72         55.4756
   439.86         55.5874
   440.00         55.6454
   440.14         55.6410
   440.28         55.5801
   440.42         55.4791
   440.56         55.3570
   440.70         55.2272
   440.84         55.0957
   440.98         54.9636
   441.12         54.8289
   441.26         54.6898
   441.40         54.5463
   441.54         54.3980
   441.68         54.2426
   441.82         54.0777
   441.96         53.9013
   442.10         53.7128
   442.24         53.5157
   442.38         53.3169
   442.52         53.1255
   442.66         52.9519
   442.80         52.8063
   442.94         52.6950
   443.08         52.6210
   443.22         52.5868
   443.36         52.5949
   443.50         52.6453
   443.64         52.7337
   443.78         52.8511
   443.92         52.9871
   444.06         53.1331
   444.20         53.2837
   444.34         53.4351
   444.48         53.5824
   444.62         53.7200
   444.76         53.8432
   444.90         53.9476
   445.04         54.0293
   445.18         54.0843
   445.32         54.1082
   445.46         54.0950
   445.60         54.0345
   445.74         53.9103
   445.88         53.7035
   446.02         53.3970
   446.16         52.9848
   446.30         52.4789
   446.44         51.9102
   446.58         51.3218
   446.72         50.7585
   446.86         50.2581
   447.00         49.8478
   447.14         49.5457
   447.28         49.3641
   447.42         49.3107
   447.56         49.3840
   447.70         49.5712
   447.84         49.8486
   447.98         50.1841
   448.12         50.5401
   448.26         50.8779
   448.40         51.1662
   448.54         51.3893
   448.68         51.5459
   448.82         51.6451
   448.96         51.6984
   449.10         51.7131
   449.24         51.6919
   449.38         51.6365
   449.52         51.5504
   449.66         51.4415
   449.80         51.3205
   449.94         51.2002
   450.08         51.0936
   450.22         51.0099
   450.36         50.9521
   450.50         50.9182
   450.64         50.9041
   450.78         50.9068
   450.92         50.9244
   451.06         50.9567
   451.20         51.0045
   451.34         51.0673
   451.48         51.1418
   451.62         51.2211
   451.76         51.2953
   451.90         51.3523
   452.04         51.3808
   452.18         51.3719
   452.32         51.3221
   452.46         51.2331
   452.60         51.1098
   452.74         50.9595
   452.88         50.7903
   453.02         50.6111
   453.16         50.4328
   453.30         50.2677
   453.44         50.1259
   453.58         50.0115
   453.72         49.9237
   453.86         49.8585
   454.00         49.8088
   454.14         49.7669
   454.28         49.7279
   454.42         49.6904
   454.56         49.6554
   454.70         49.6230
   454.84         49.5921
   454.98         49.5617
   455.12         49.5306
   455.26         49.4981
   455.40         49.4646
   455.54         49.4300
   455.68         49.3914
   455.82         49.3460
   455.96         49.2942
   456.10         49.2387
   456.24         49.1800
   456.38         49.1190
   456.52         49.0595
   456.66         49.0068
   456.80         48.9652
   456.94         48.9341
