# File HD44811
# Wavelength [nm]    Normalized Amplitude
   349.70         324.4413
   349.84         324.8951
   349.98         325.1589
   350.12         325.1978
   350.26         325.0072
   350.40         324.6185
   350.54         324.1013
   350.68         323.5371
   350.82         323.0178
   350.96         322.6465
   351.10         322.5107
   351.24         322.6465
   351.38         323.0178
   351.52         323.5371
   351.66         324.1013
   351.80         324.6185
   351.94         325.0072
   352.08         325.1978
   352.22         325.1589
   352.36         324.8951
   352.50         324.4413
   352.64         323.8597
   352.78         323.2189
   352.92         322.5862
   353.06         322.0117
   353.20         321.5178
   353.34         321.1031
   353.48         320.7371
   353.62         320.3699
   353.76         319.9537
   353.90         319.4575
   354.04         318.8809
   354.18         318.2345
   354.32         317.5050
   354.46         316.6609
   354.60         315.6677
   354.74         314.5047
   354.88         313.1723
   355.02         311.6978
   355.16         310.1469
   355.30         308.6041
   355.44         307.1628
   355.58         305.9147
   355.72         304.9133
   355.86         304.1642
   356.00         303.6359
   356.14         303.2790
   356.28         303.0399
   356.42         302.8540
   356.56         302.6415
   356.70         302.3116
   356.84         301.7804
   356.98         301.0106
   357.12         300.0388
   357.26         298.9521
   357.40         297.8268
   357.54         296.6915
   357.68         295.5402
   357.82         294.3521
   357.96         293.1140
   358.10         291.8387
   358.24         290.5581
   358.38         289.3086
   358.52         288.1417
   358.66         287.1565
   358.80         286.4782
   358.94         286.1860
   359.08         286.2848
   359.22         286.7159
   359.36         287.3748
   359.50         288.1389
   359.64         288.8821
   359.78         289.4848
   359.92         289.8517
   360.06         289.9223
   360.20         289.6863
   360.34         289.1858
   360.48         288.4991
   360.62         287.7172
   360.76         286.9190
   360.90         286.1635
   361.04         285.5042
   361.18         284.9841
   361.32         284.6138
   361.46         284.3626
   361.60         284.1664
   361.74         283.9524
   361.88         283.6710
   362.02         283.3238
   362.16         282.9494
   362.30         282.5757
   362.44         282.1981
   362.58         281.7881
   362.72         281.3076
   362.86         280.7039
   363.00         279.9272
   363.14         278.9727
   363.28         277.8935
   363.42         276.7752
   363.56         275.7062
   363.70         274.7508
   363.84         273.9502
   363.98         273.3441
   364.12         272.9631
   364.26         272.8054
   364.40         272.8402
   364.54         273.0288
   364.68         273.3363
   364.82         273.7204
   364.96         274.1117
   365.10         274.4403
   365.24         274.6687
   365.38         274.7859
   365.52         274.7907
   365.66         274.6977
   365.80         274.5463
   365.94         274.4004
   366.08         274.3242
   366.22         274.3488
   366.36         274.4676
   366.50         274.6483
   366.64         274.8355
   366.78         274.9495
   366.92         274.9240
   367.06         274.7171
   367.20         274.3093
   367.34         273.7305
   367.48         273.0435
   367.62         272.2937
   367.76         271.5211
   367.90         270.7799
   368.04         270.1269
   368.18         269.6153
   368.32         269.2650
   368.46         269.0603
   368.60         268.9769
   368.74         268.9712
   368.88         268.9705
   369.02         268.8963
   369.16         268.6750
   369.30         268.2392
   369.44         267.5314
   369.58         266.5151
   369.72         265.1954
   369.86         263.6365
   370.00         261.9490
   370.14         260.2298
   370.28         258.5451
   370.42         256.9691
   370.56         255.5801
   370.70         254.4255
   370.84         253.5124
   370.98         252.8167
   371.12         252.3097
   371.26         251.9669
   371.40         251.7568
   371.54         251.6427
   371.68         251.5962
   371.82         251.5943
   371.96         251.6311
   372.10         251.7273
   372.24         251.9153
   372.38         252.2207
   372.52         252.6301
   372.66         253.0940
   372.80         253.5619
   372.94         254.0140
   373.08         254.4640
   373.22         254.9233
   373.36         255.3812
   373.50         255.8078
   373.64         256.1529
   373.78         256.3470
   373.92         256.2959
   374.06         255.8666
   374.20         254.9030
   374.34         253.2952
   374.48         251.0370
   374.62         248.2208
   374.76         245.0108
   374.90         241.6221
   375.04         238.3063
   375.18         235.3311
   375.32         232.9580
   375.46         231.3929
   375.60         230.7217
   375.74         230.8873
   375.88         231.6968
   376.02         232.8612
   376.16         234.0655
   376.30         235.0533
   376.44         235.6763
   376.58         235.9043
   376.72         235.8257
   376.86         235.6366
   377.00         235.6031
   377.14         235.9673
   377.28         236.8928
   377.42         238.4657
   377.56         240.6815
   377.70         243.4291
   377.84         246.5017
   377.98         249.6318
   378.12         252.5108
   378.26         254.8205
   378.40         256.2742
   378.54         256.6494
   378.68         255.8535
   378.82         253.9678
   378.96         251.2263
   379.10         247.9646
   379.24         244.5816
   379.38         241.4832
   379.52         239.0192
   379.66         237.4577
   379.80         236.9678
   379.94         237.6119
   380.08         239.3301
   380.22         241.9482
   380.36         245.2320
   380.50         248.9080
   380.64         252.6392
   380.78         256.0428
   380.92         258.7878
   381.06         260.6753
   381.20         261.6679
   381.34         261.8879
   381.48         261.5501
   381.62         260.8804
   381.76         260.0673
   381.90         259.2252
   382.04         258.3685
   382.18         257.4136
   382.32         256.2076
   382.46         254.5732
   382.60         252.3775
   382.74         249.6010
   382.88         246.3548
   383.02         242.8401
   383.16         239.2947
   383.30         235.9766
   383.44         233.1837
   383.58         231.2284
   383.72         230.3395
   383.86         230.5886
   384.00         231.8901
   384.14         234.0395
   384.28         236.7638
   384.42         239.7641
   384.56         242.7487
   384.70         245.4653
   384.84         247.7294
   384.98         249.4463
   385.12         250.6181
   385.26         251.3323
   385.40         251.7229
   385.54         251.9062
   385.68         251.9387
   385.82         251.8308
   385.96         251.5848
   386.10         251.2114
   386.24         250.7201
   386.38         250.1125
   386.52         249.3980
   386.66         248.6007
   386.80         247.7447
   386.94         246.8395
   387.08         245.8692
   387.22         244.7899
   387.36         243.5280
   387.50         241.9592
   387.64         239.9155
   387.78         237.2484
   387.92         233.9044
   388.06         229.9631
   388.20         225.6194
   388.34         221.1453
   388.48         216.8562
   388.62         213.0735
   388.76         210.0927
   388.90         208.1554
   389.04         207.4159
   389.18         207.9231
   389.32         209.6130
   389.46         212.3001
   389.60         215.6961
   389.74         219.4527
   389.88         223.2074
   390.02         226.6290
   390.16         229.4555
   390.30         231.5525
   390.44         232.9342
   390.58         233.7112
   390.72         234.0315
   390.86         234.0348
   391.00         233.8224
   391.14         233.4550
   391.28         232.9732
   391.42         232.4131
   391.56         231.7929
   391.70         231.1089
   391.84         230.3601
   391.98         229.5523
   392.12         228.6809
   392.26         227.7341
   392.40         226.7176
   392.54         225.6719
   392.68         224.6635
   392.82         223.7689
   392.96         223.0608
   393.10         222.5929
   393.24         222.3969
   393.38         222.4865
   393.52         222.8528
   393.66         223.4586
   393.80         224.2412
   393.94         225.1184
   394.08         226.0004
   394.22         226.8000
   394.36         227.4326
   394.50         227.8244
   394.64         227.9179
   394.78         227.6733
   394.92         227.0795
   395.06         226.1633
   395.20         224.9541
   395.34         223.4437
   395.48         221.5833
   395.62         219.2869
   395.76         216.4539
   395.90         213.0095
   396.04         208.9526
   396.18         204.3977
   396.32         199.5763
   396.46         194.8017
   396.60         190.4193
   396.74         186.7578
   396.88         184.0921
   397.02         182.6167
   397.16         182.4350
   397.30         183.5481
   397.44         185.8355
   397.58         189.0555
   397.72         192.8760
   397.86         196.9261
   398.00         200.8551
   398.14         204.3775
   398.28         207.3097
   398.42         209.5936
   398.56         211.2809
   398.70         212.4825
   398.84         213.3131
   398.98         213.8579
   399.12         214.1701
   399.26         214.2858
   399.40         214.2429
   399.54         214.0839
   399.68         213.8398
   399.82         213.5295
   399.96         213.1600
   400.10         212.7220
   400.24         212.2062
   400.38         211.6313
   400.52         211.0438
   400.66         210.4880
   400.80         209.9891
   400.94         209.5516
   401.08         209.1498
   401.22         208.7195
   401.36         208.1717
   401.50         207.4226
   401.64         206.4287
   401.78         205.1996
   401.92         203.7868
   402.06         202.2678
   402.20         200.7225
   402.34         199.2299
   402.48         197.8788
   402.62         196.7536
   402.76         195.9162
   402.90         195.4072
   403.04         195.2480
   403.18         195.4223
   403.32         195.8722
   403.46         196.5220
   403.60         197.2918
   403.74         198.0974
   403.88         198.8641
   404.02         199.5454
   404.16         200.1360
   404.30         200.6660
   404.44         201.1599
   404.58         201.6108
   404.72         201.9882
   404.86         202.2558
   405.00         202.3964
   405.14         202.4194
   405.28         202.3519
   405.42         202.2206
   405.56         202.0408
   405.70         201.8180
   405.84         201.5480
   405.98         201.2246
   406.12         200.8506
   406.26         200.4351
   406.40         199.9908
   406.54         199.5339
   406.68         199.0776
   406.82         198.6257
   406.96         198.1725
   407.10         197.7093
   407.24         197.2356
   407.38         196.7650
   407.52         196.3150
   407.66         195.8851
   407.80         195.4461
   407.94         194.9517
   408.08         194.3585
   408.22         193.6423
   408.36         192.7957
   408.50         191.8060
   408.64         190.6430
   408.78         189.2530
   408.92         187.5496
   409.06         185.4264
   409.20         182.7996
   409.34         179.6666
   409.48         176.1321
   409.62         172.4032
   409.76         168.7625
   409.90         165.5201
   410.04         162.9639
   410.18         161.3111
   410.32         160.6869
   410.46         161.1254
   410.60         162.5679
   410.74         164.8590
   410.88         167.7506
   411.02         170.9431
   411.16         174.1423
   411.30         177.0974
   411.44         179.6220
   411.58         181.6103
   411.72         183.0515
   411.86         184.0284
   412.00         184.6788
   412.14         185.1376
   412.28         185.5010
   412.42         185.8183
   412.56         186.0966
   412.70         186.3116
   412.84         186.4276
   412.98         186.4178
   413.12         186.2633
   413.26         185.9507
   413.40         185.4821
   413.54         184.8824
   413.68         184.1977
   413.82         183.4769
   413.96         182.7568
   414.10         182.0662
   414.24         181.4268
   414.38         180.8604
   414.52         180.3914
   414.66         180.0427
   414.80         179.8302
   414.94         179.7536
   415.08         179.7994
   415.22         179.9515
   415.36         180.1881
   415.50         180.4783
   415.64         180.7767
   415.78         181.0311
   415.92         181.2035
   416.06         181.2749
   416.20         181.2411
   416.34         181.1071
   416.48         180.8809
   416.62         180.5724
   416.76         180.1936
   416.90         179.7617
   417.04         179.3036
   417.18         178.8452
   417.32         178.3968
   417.46         177.9570
   417.60         177.5171
   417.74         177.0644
   417.88         176.5883
   418.02         176.0786
   418.16         175.5282
   418.30         174.9359
   418.44         174.3094
   418.58         173.6630
   418.72         173.0042
   418.86         172.3302
   419.00         171.6311
   419.14         170.9004
   419.28         170.1449
   419.42         169.3850
   419.56         168.6516
   419.70         167.9843
   419.84         167.4201
   419.98         166.9885
   420.12         166.7130
   420.26         166.6041
   420.40         166.6643
   420.54         166.8930
   420.68         167.2714
   420.82         167.7559
   420.96         168.2905
   421.10         168.8225
   421.24         169.3093
   421.38         169.7103
   421.52         169.9901
   421.66         170.1377
   421.80         170.1720
   421.94         170.1239
   422.08         170.0152
   422.22         169.8612
   422.36         169.6795
   422.50         169.4843
   422.64         169.2850
   422.78         169.0894
   422.92         168.9064
   423.06         168.7455
   423.20         168.6016
   423.34         168.4532
   423.48         168.2866
   423.62         168.1045
   423.76         167.9123
   423.90         167.7107
   424.04         167.4974
   424.18         167.2773
   424.32         167.0629
   424.46         166.8653
   424.60         166.6905
   424.74         166.5452
   424.88         166.4363
   425.02         166.3611
   425.16         166.3051
   425.30         166.2477
   425.44         166.1674
   425.58         166.0478
   425.72         165.8807
   425.86         165.6660
   426.00         165.4167
   426.14         165.1531
   426.28         164.8874
   426.42         164.6218
   426.56         164.3498
   426.70         164.0601
   426.84         163.7441
   426.98         163.4045
   427.12         163.0534
   427.26         162.7054
   427.40         162.3753
   427.54         162.0759
   427.68         161.8215
   427.82         161.6289
   427.96         161.5127
   428.10         161.4836
   428.24         161.5462
   428.38         161.6926
   428.52         161.8970
   428.66         162.1210
   428.80         162.3266
   428.94         162.4845
   429.08         162.5747
   429.22         162.5891
   429.36         162.5360
   429.50         162.4390
   429.64         162.3272
   429.78         162.2208
   429.92         162.1280
   430.06         162.0516
   430.20         161.9894
   430.34         161.9312
   430.48         161.8578
   430.62         161.7451
   430.76         161.5686
   430.90         161.3044
   431.04         160.9391
   431.18         160.4819
   431.32         159.9602
   431.46         159.4076
   431.60         158.8580
   431.74         158.3420
   431.88         157.8795
   432.02         157.4682
   432.16         157.0859
   432.30         156.6940
   432.44         156.2331
   432.58         155.6210
   432.72         154.7492
   432.86         153.4873
   433.00         151.7211
   433.14         149.4052
   433.28         146.5927
   433.42         143.4300
   433.56         140.1317
   433.70         136.9546
   433.84         134.1618
   433.98         131.9858
   434.12         130.6106
   434.26         130.1521
   434.40         130.6372
   434.54         132.0063
   434.68         134.1222
   434.82         136.7840
   434.96         139.7448
   435.10         142.7361
   435.24         145.5086
   435.38         147.8669
   435.52         149.6974
   435.66         150.9841
   435.80         151.7835
   435.94         152.1785
   436.08         152.2565
   436.22         152.1070
   436.36         151.8161
   436.50         151.4551
   436.64         151.0806
   436.78         150.7394
   436.92         150.4662
   437.06         150.2847
   437.20         150.2056
   437.34         150.2200
   437.48         150.2972
   437.62         150.3812
   437.76         150.4044
   437.90         150.3129
   438.04         150.0772
   438.18         149.6955
   438.32         149.1916
   438.46         148.6038
   438.60         147.9777
   438.74         147.3646
   438.88         146.8169
   439.02         146.3784
   439.16         146.0768
   439.30         145.9192
   439.44         145.8896
   439.58         145.9512
   439.72         146.0512
   439.86         146.1353
   440.00         146.1562
   440.14         146.0725
   440.28         145.8595
   440.42         145.5319
   440.56         145.1389
   440.70         144.7341
   440.84         144.3524
   440.98         144.0081
   441.12         143.7022
   441.26         143.4281
   441.40         143.1772
   441.54         142.9438
   441.68         142.7197
   441.82         142.4873
   441.96         142.2244
   442.10         141.9180
   442.24         141.5692
   442.38         141.1906
   442.52         140.8002
   442.66         140.4120
   442.80         140.0407
   442.94         139.7129
   443.08         139.4644
   443.22         139.3251
   443.36         139.3049
   443.50         139.3910
   443.64         139.5562
   443.78         139.7688
   443.92         139.9996
   444.06         140.2286
   444.20         140.4388
   444.34         140.6085
   444.48         140.7125
   444.62         140.7309
   444.76         140.6559
   444.90         140.4935
   445.04         140.2598
   445.18         139.9767
   445.32         139.6733
   445.46         139.3794
   445.60         139.1086
   445.74         138.8467
   445.88         138.5404
   446.02         138.1067
   446.16         137.4825
   446.30         136.6628
   446.44         135.6952
   446.58         134.6518
   446.72         133.6047
   446.86         132.6228
   447.00         131.7762
   447.14         131.1318
   447.28         130.7450
   447.42         130.6554
   447.56         130.8794
   447.70         131.3955
   447.84         132.1466
   447.98         133.0495
   448.12         133.9994
   448.26         134.8855
   448.40         135.6142
   448.54         136.1278
   448.68         136.4227
   448.82         136.5409
   448.96         136.5317
   449.10         136.4281
   449.24         136.2484
   449.38         136.0103
   449.52         135.7439
   449.66         135.4804
   449.80         135.2385
   449.94         135.0187
   450.08         134.8074
   450.22         134.5804
   450.36         134.3081
   450.50         133.9714
   450.64         133.5710
   450.78         133.1236
   450.92         132.6576
   451.06         132.2053
   451.20         131.7953
   451.34         131.4447
   451.48         131.1553
   451.62         130.9224
   451.76         130.7463
   451.90         130.6291
   452.04         130.5675
   452.18         130.5509
   452.32         130.5587
   452.46         130.5632
   452.60         130.5388
   452.74         130.4643
   452.88         130.3135
