# File HD5211
# Wavelength [nm]    Normalized Amplitude
   349.70         7.0407
   349.84         7.0451
   349.98         7.0599
   350.12         7.0802
   350.26         7.1017
   350.40         7.1219
   350.54         7.1398
   350.68         7.1545
   350.82         7.1649
   350.96         7.1707
   351.10         7.1724
   351.24         7.1707
   351.38         7.1649
   351.52         7.1545
   351.66         7.1398
   351.80         7.1219
   351.94         7.1017
   352.08         7.0802
   352.22         7.0599
   352.36         7.0451
   352.50         7.0407
   352.64         7.0516
   352.78         7.0814
   352.92         7.1320
   353.06         7.2025
   353.20         7.2891
   353.34         7.3855
   353.48         7.4852
   353.62         7.5828
   353.76         7.6748
   353.90         7.7581
   354.04         7.8294
   354.18         7.8859
   354.32         7.9263
   354.46         7.9501
   354.60         7.9571
   354.74         7.9484
   354.88         7.9266
   355.02         7.8949
   355.16         7.8562
   355.30         7.8113
   355.44         7.7598
   355.58         7.7008
   355.72         7.6335
   355.86         7.5583
   356.00         7.4769
   356.14         7.3920
   356.28         7.3058
   356.42         7.2201
   356.56         7.1357
   356.70         7.0542
   356.84         6.9779
   356.98         6.9090
   357.12         6.8485
   357.26         6.7956
   357.40         6.7475
   357.54         6.7004
   357.68         6.6509
   357.82         6.5978
   357.96         6.5427
   358.10         6.4909
   358.24         6.4498
   358.38         6.4271
   358.52         6.4296
   358.66         6.4629
   358.80         6.5300
   358.94         6.6285
   359.08         6.7520
   359.22         6.8908
   359.36         7.0332
   359.50         7.1673
   359.64         7.2829
   359.78         7.3721
   359.92         7.4292
   360.06         7.4518
   360.20         7.4413
   360.34         7.4035
   360.48         7.3475
   360.62         7.2817
   360.76         7.2124
   360.90         7.1445
   361.04         7.0833
   361.18         7.0341
   361.32         7.0015
   361.46         6.9892
   361.60         6.9996
   361.74         7.0336
   361.88         7.0882
   362.02         7.1563
   362.16         7.2284
   362.30         7.2948
   362.44         7.3481
   362.58         7.3845
   362.72         7.4041
   362.86         7.4100
   363.00         7.4066
   363.14         7.3978
   363.28         7.3860
   363.42         7.3735
   363.56         7.3637
   363.70         7.3588
   363.84         7.3600
   363.98         7.3676
   364.12         7.3814
   364.26         7.3999
   364.40         7.4203
   364.54         7.4411
   364.68         7.4641
   364.82         7.4950
   364.96         7.5402
   365.10         7.6033
   365.24         7.6837
   365.38         7.7773
   365.52         7.8771
   365.66         7.9742
   365.80         8.0602
   365.94         8.1289
   366.08         8.1773
   366.22         8.2060
   366.36         8.2174
   366.50         8.2152
   366.64         8.2036
   366.78         8.1859
   366.92         8.1650
   367.06         8.1427
   367.20         8.1204
   367.34         8.0985
   367.48         8.0756
   367.62         8.0491
   367.76         8.0171
   367.90         7.9806
   368.04         7.9436
   368.18         7.9113
   368.32         7.8874
   368.46         7.8746
   368.60         7.8750
   368.74         7.8899
   368.88         7.9206
   369.02         7.9668
   369.16         8.0251
   369.30         8.0885
   369.44         8.1484
   369.58         8.1967
   369.72         8.2268
   369.86         8.2346
   370.00         8.2185
   370.14         8.1809
   370.28         8.1296
   370.42         8.0766
   370.56         8.0345
   370.70         8.0123
   370.84         8.0125
   370.98         8.0315
   371.12         8.0629
   371.26         8.1006
   371.40         8.1402
   371.54         8.1786
   371.68         8.2127
   371.82         8.2390
   371.96         8.2560
   372.10         8.2633
   372.24         8.2596
   372.38         8.2422
   372.52         8.2098
   372.66         8.1650
   372.80         8.1149
   372.94         8.0689
   373.08         8.0347
   373.22         8.0154
   373.36         8.0091
   373.50         8.0108
   373.64         8.0152
   373.78         8.0172
   373.92         8.0140
   374.06         8.0058
   374.20         7.9958
   374.34         7.9888
   374.48         7.9896
   374.62         8.0008
   374.76         8.0236
   374.90         8.0595
   375.04         8.1124
   375.18         8.1888
   375.32         8.2934
   375.46         8.4244
   375.60         8.5717
   375.74         8.7179
   375.88         8.8424
   376.02         8.9276
   376.16         8.9648
   376.30         8.9561
   376.44         8.9137
   376.58         8.8571
   376.72         8.8090
   376.86         8.7907
   377.00         8.8167
   377.14         8.8939
   377.28         9.0226
   377.42         9.1971
   377.56         9.4069
   377.70         9.6370
   377.84         9.8694
   377.98         10.0835
   378.12         10.2577
   378.26         10.3722
   378.40         10.4125
   378.54         10.3715
   378.68         10.2509
   378.82         10.0619
   378.96         9.8238
   379.10         9.5618
   379.24         9.3047
   379.38         9.0809
   379.52         8.9140
   379.66         8.8209
   379.80         8.8112
   379.94         8.8858
   380.08         9.0358
   380.22         9.2439
   380.36         9.4873
   380.50         9.7421
   380.64         9.9857
   380.78         10.1975
   380.92         10.3606
   381.06         10.4647
   381.20         10.5077
   381.34         10.4946
   381.48         10.4345
   381.62         10.3381
   381.76         10.2152
   381.90         10.0718
   382.04         9.9093
   382.18         9.7256
   382.32         9.5175
   382.46         9.2830
   382.60         9.0234
   382.74         8.7438
   382.88         8.4566
   383.02         8.1823
   383.16         7.9467
   383.30         7.7738
   383.44         7.6822
   383.58         7.6837
   383.72         7.7839
   383.86         7.9801
   384.00         8.2618
   384.14         8.6120
   384.28         9.0096
   384.42         9.4296
   384.56         9.8450
   384.70         10.2294
   384.84         10.5626
   384.98         10.8341
   385.12         11.0445
   385.26         11.2024
   385.40         11.3209
   385.54         11.4142
   385.68         11.4958
   385.82         11.5740
   385.96         11.6512
   386.10         11.7245
   386.24         11.7892
   386.38         11.8410
   386.52         11.8757
   386.66         11.8887
   386.80         11.8750
   386.94         11.8315
   387.08         11.7569
   387.22         11.6514
   387.36         11.5156
   387.50         11.3502
   387.64         11.1546
   387.78         10.9277
   387.92         10.6706
   388.06         10.3890
   388.20         10.0941
   388.34         9.8008
   388.48         9.5264
   388.62         9.2896
   388.76         9.1087
   388.90         9.0004
   389.04         8.9758
   389.18         9.0369
   389.32         9.1757
   389.46         9.3773
   389.60         9.6232
   389.74         9.8931
   389.88         10.1676
   390.02         10.4298
   390.16         10.6677
   390.30         10.8753
   390.44         11.0521
   390.58         11.2017
   390.72         11.3269
   390.86         11.4277
   391.00         11.5028
   391.14         11.5511
   391.28         11.5703
   391.42         11.5553
   391.56         11.4981
   391.70         11.3878
   391.84         11.2109
   391.98         10.9546
   392.12         10.6106
   392.26         10.1774
   392.40         9.6634
   392.54         9.0880
   392.68         8.4814
   392.82         7.8822
   392.96         7.3323
   393.10         6.8726
   393.24         6.5378
   393.38         6.3542
   393.52         6.3364
   393.66         6.4855
   393.80         6.7875
   393.94         7.2141
   394.08         7.7265
   394.22         8.2809
   394.36         8.8333
   394.50         9.3449
   394.64         9.7871
   394.78         10.1434
   394.92         10.4075
   395.06         10.5800
   395.20         10.6643
   395.34         10.6619
   395.48         10.5696
   395.62         10.3812
   395.76         10.0934
   395.90         9.7110
   396.04         9.2512
   396.18         8.7425
   396.32         8.2210
   396.46         7.7286
   396.60         7.3084
   396.74         7.0002
   396.88         6.8349
   397.02         6.8309
   397.16         6.9921
   397.30         7.3076
   397.44         7.7520
   397.58         8.2886
   397.72         8.8754
   397.86         9.4702
   398.00         10.0358
   398.14         10.5439
   398.28         10.9784
   398.42         11.3353
   398.56         11.6200
   398.70         11.8437
   398.84         12.0212
   398.98         12.1668
   399.12         12.2921
   399.26         12.4041
   399.40         12.5047
   399.54         12.5929
   399.68         12.6676
   399.82         12.7299
   399.96         12.7827
   400.10         12.8298
   400.24         12.8751
   400.38         12.9222
   400.52         12.9736
   400.66         13.0304
   400.80         13.0934
   400.94         13.1630
   401.08         13.2374
   401.22         13.3143
   401.36         13.3920
   401.50         13.4695
   401.64         13.5439
   401.78         13.6095
   401.92         13.6586
   402.06         13.6845
   402.20         13.6846
   402.34         13.6606
   402.48         13.6174
   402.62         13.5615
   402.76         13.5000
   402.90         13.4405
   403.04         13.3900
   403.18         13.3531
   403.32         13.3318
   403.46         13.3255
   403.60         13.3327
   403.74         13.3517
   403.88         13.3805
   404.02         13.4160
   404.16         13.4521
   404.30         13.4801
   404.44         13.4910
   404.58         13.4795
   404.72         13.4461
   404.86         13.3960
   405.00         13.3361
   405.14         13.2711
   405.28         13.2035
   405.42         13.1348
   405.56         13.0668
   405.70         13.0033
   405.84         12.9490
   405.98         12.9079
   406.12         12.8833
   406.26         12.8766
   406.40         12.8837
   406.54         12.8949
   406.68         12.8996
   406.82         12.8912
   406.96         12.8690
   407.10         12.8353
   407.24         12.7936
   407.38         12.7481
   407.52         12.7041
   407.66         12.6667
   407.80         12.6408
   407.94         12.6301
   408.08         12.6354
   408.22         12.6534
   408.36         12.6764
   408.50         12.6911
   408.64         12.6809
   408.78         12.6289
   408.92         12.5197
   409.06         12.3432
   409.20         12.0993
   409.34         11.8013
   409.48         11.4730
   409.62         11.1419
   409.76         10.8353
   409.90         10.5786
   410.04         10.3947
   410.18         10.3012
   410.32         10.3077
   410.46         10.4139
   410.60         10.6102
   410.74         10.8790
   410.88         11.1966
   411.02         11.5363
   411.16         11.8716
   411.30         12.1797
   411.44         12.4440
   411.58         12.6552
   411.72         12.8131
   411.86         12.9238
   412.00         12.9960
   412.14         13.0373
   412.28         13.0547
   412.42         13.0564
   412.56         13.0523
   412.70         13.0531
   412.84         13.0683
   412.98         13.1027
   413.12         13.1558
   413.26         13.2233
   413.40         13.2998
   413.54         13.3802
   413.68         13.4595
   413.82         13.5334
   413.96         13.5980
   414.10         13.6494
   414.24         13.6842
   414.38         13.7002
   414.52         13.6967
   414.66         13.6757
   414.80         13.6426
   414.94         13.6051
   415.08         13.5718
   415.22         13.5499
   415.36         13.5438
   415.50         13.5539
   415.64         13.5773
   415.78         13.6096
   415.92         13.6454
   416.06         13.6766
   416.20         13.6931
   416.34         13.6858
   416.48         13.6493
   416.62         13.5823
   416.76         13.4879
   416.90         13.3731
   417.04         13.2481
   417.18         13.1241
   417.32         13.0131
   417.46         12.9249
   417.60         12.8661
   417.74         12.8398
   417.88         12.8458
   418.02         12.8812
   418.16         12.9408
   418.30         13.0172
   418.44         13.1014
   418.58         13.1827
   418.72         13.2518
   418.86         13.3030
   419.00         13.3347
   419.14         13.3468
   419.28         13.3409
   419.42         13.3198
   419.56         13.2880
   419.70         13.2499
   419.84         13.2115
   419.98         13.1798
   420.12         13.1619
   420.26         13.1632
   420.40         13.1858
   420.54         13.2287
   420.68         13.2877
   420.82         13.3570
   420.96         13.4292
   421.10         13.4959
   421.24         13.5485
   421.38         13.5785
   421.52         13.5781
   421.66         13.5439
   421.80         13.4791
   421.94         13.3923
   422.08         13.2940
   422.22         13.1938
   422.36         13.0993
   422.50         13.0169
   422.64         12.9505
   422.78         12.9018
   422.92         12.8709
   423.06         12.8567
   423.20         12.8587
   423.34         12.8748
   423.48         12.9008
   423.62         12.9295
   423.76         12.9533
   423.90         12.9668
   424.04         12.9692
   424.18         12.9650
   424.32         12.9625
   424.46         12.9694
   424.60         12.9882
   424.74         13.0165
   424.88         13.0489
   425.02         13.0805
   425.16         13.1092
   425.30         13.1361
   425.44         13.1639
   425.58         13.1943
   425.72         13.2265
   425.86         13.2574
   426.00         13.2814
   426.14         13.2934
   426.28         13.2900
   426.42         13.2720
   426.56         13.2441
   426.70         13.2122
   426.84         13.1814
   426.98         13.1549
   427.12         13.1348
   427.26         13.1223
   427.40         13.1172
   427.54         13.1182
   427.68         13.1230
   427.82         13.1271
   427.96         13.1244
   428.10         13.1089
   428.24         13.0770
   428.38         13.0270
   428.52         12.9588
   428.66         12.8739
   428.80         12.7740
   428.94         12.6612
   429.08         12.5385
   429.22         12.4091
   429.36         12.2752
   429.50         12.1391
   429.64         12.0024
   429.78         11.8668
   429.92         11.7355
   430.06         11.6129
   430.20         11.5048
   430.34         11.4182
   430.48         11.3623
   430.62         11.3480
   430.76         11.3834
   430.90         11.4696
   431.04         11.6001
   431.18         11.7630
   431.32         11.9425
   431.46         12.1213
   431.60         12.2848
   431.74         12.4245
   431.88         12.5353
   432.02         12.6138
   432.16         12.6574
   432.30         12.6653
   432.44         12.6385
   432.58         12.5773
   432.72         12.4791
   432.86         12.3386
   433.00         12.1515
   433.14         11.9180
   433.28         11.6452
   433.42         11.3456
   433.56         11.0374
   433.70         10.7435
   433.84         10.4873
   433.98         10.2893
   434.12         10.1659
   434.26         10.1292
   434.40         10.1849
   434.54         10.3292
   434.68         10.5501
   434.82         10.8298
   434.96         11.1467
   435.10         11.4784
   435.24         11.8043
   435.38         12.1090
   435.52         12.3841
   435.66         12.6274
   435.80         12.8406
   435.94         13.0263
   436.08         13.1858
   436.22         13.3177
   436.36         13.4186
   436.50         13.4850
   436.64         13.5165
   436.78         13.5184
   436.92         13.4990
   437.06         13.4656
   437.20         13.4215
   437.34         13.3666
   437.48         13.3011
   437.62         13.2271
   437.76         13.1482
   437.90         13.0678
   438.04         12.9890
   438.18         12.9145
   438.32         12.8471
   438.46         12.7908
   438.60         12.7514
   438.74         12.7332
   438.88         12.7372
   439.02         12.7617
   439.16         12.8035
   439.30         12.8577
   439.44         12.9176
   439.58         12.9754
   439.72         13.0236
   439.86         13.0580
   440.00         13.0808
   440.14         13.0983
   440.28         13.1159
   440.42         13.1353
   440.56         13.1560
   440.70         13.1777
   440.84         13.2017
   440.98         13.2298
   441.12         13.2629
   441.26         13.3008
   441.40         13.3412
   441.54         13.3810
   441.68         13.4185
   441.82         13.4528
   441.96         13.4825
   442.10         13.5055
   442.24         13.5196
   442.38         13.5226
   442.52         13.5139
   442.66         13.4956
   442.80         13.4708
   442.94         13.4420
   443.08         13.4113
   443.22         13.3810
   443.36         13.3547
   443.50         13.3358
   443.64         13.3265
   443.78         13.3271
   443.92         13.3368
   444.06         13.3533
   444.20         13.3732
   444.34         13.3908
   444.48         13.3992
   444.62         13.3931
   444.76         13.3708
   444.90         13.3328
   445.04         13.2817
   445.18         13.2216
   445.32         13.1577
   445.46         13.0946
   445.60         13.0354
   445.74         12.9828
   445.88         12.9415
   446.02         12.9176
   446.16         12.9168
   446.30         12.9419
   446.44         12.9922
   446.58         13.0641
   446.72         13.1507
   446.86         13.2415
   447.00         13.3251
   447.14         13.3934
   447.28         13.4431
   447.42         13.4740
   447.56         13.4867
   447.70         13.4823
   447.84         13.4625
   447.98         13.4303
   448.12         13.3901
   448.26         13.3465
   448.40         13.3043
   448.54         13.2695
   448.68         13.2473
   448.82         13.2404
   448.96         13.2484
   449.10         13.2696
   449.24         13.3018
   449.38         13.3435
   449.52         13.3933
   449.66         13.4509
   449.80         13.5171
   449.94         13.5913
   450.08         13.6697
   450.22         13.7460
   450.36         13.8130
   450.50         13.8651
   450.64         13.8993
   450.78         13.9143
   450.92         13.9097
   451.06         13.8866
   451.20         13.8469
   451.34         13.7931
   451.48         13.7274
   451.62         13.6523
   451.76         13.5702
   451.90         13.4830
   452.04         13.3918
   452.18         13.2977
   452.32         13.2028
   452.46         13.1127
   452.60         13.0339
   452.74         12.9714
   452.88         12.9283
   453.02         12.9068
   453.16         12.9085
   453.30         12.9326
   453.44         12.9749
   453.58         13.0281
   453.72         13.0823
   453.86         13.1278
   454.00         13.1576
   454.14         13.1669
   454.28         13.1540
   454.42         13.1200
   454.56         13.0704
   454.70         13.0148
   454.84         12.9640
   454.98         12.9281
   455.12         12.9141
   455.26         12.9238
   455.40         12.9545
   455.54         13.0025
   455.68         13.0638
   455.82         13.1333
   455.96         13.2044
   456.10         13.2709
   456.24         13.3288
   456.38         13.3762
   456.52         13.4138
   456.66         13.4420
   456.80         13.4601
   456.94         13.4668
   457.08         13.4612
   457.22         13.4436
   457.36         13.4142
   457.50         13.3730
   457.64         13.3209
   457.78         13.2605
   457.92         13.1958
   458.06         13.1323
   458.20         13.0757
   458.34         13.0300
