# File HD5351
# Wavelength [nm]    Normalized Amplitude
   349.70         1.9613
   349.84         1.9157
   349.98         1.8857
   350.12         1.8676
   350.26         1.8579
   350.40         1.8542
   350.54         1.8559
   350.68         1.8620
   350.82         1.8706
   350.96         1.8779
   351.10         1.8807
   351.24         1.8779
   351.38         1.8706
   351.52         1.8620
   351.66         1.8559
   351.80         1.8542
   351.94         1.8579
   352.08         1.8676
   352.22         1.8857
   352.36         1.9157
   352.50         1.9613
   352.64         2.0242
   352.78         2.1040
   352.92         2.1993
   353.06         2.3071
   353.20         2.4213
   353.34         2.5330
   353.48         2.6328
   353.62         2.7144
   353.76         2.7754
   353.90         2.8162
   354.04         2.8378
   354.18         2.8409
   354.32         2.8265
   354.46         2.7960
   354.60         2.7526
   354.74         2.7005
   354.88         2.6440
   355.02         2.5864
   355.16         2.5279
   355.30         2.4662
   355.44         2.3982
   355.58         2.3218
   355.72         2.2361
   355.86         2.1406
   356.00         2.0365
   356.14         1.9275
   356.28         1.8191
   356.42         1.7158
   356.56         1.6194
   356.70         1.5299
   356.84         1.4492
   356.98         1.3797
   357.12         1.3229
   357.26         1.2782
   357.40         1.2436
   357.54         1.2169
   357.68         1.1968
   357.82         1.1831
   357.96         1.1769
   358.10         1.1802
   358.24         1.1956
   358.38         1.2255
   358.52         1.2727
   358.66         1.3389
   358.80         1.4229
   358.94         1.5195
   359.08         1.6201
   359.22         1.7153
   359.36         1.7968
   359.50         1.8582
   359.64         1.8949
   359.78         1.9051
   359.92         1.8906
   360.06         1.8566
   360.20         1.8104
   360.34         1.7589
   360.48         1.7074
   360.62         1.6592
   360.76         1.6185
   360.90         1.5901
   361.04         1.5784
   361.18         1.5857
   361.32         1.6118
   361.46         1.6542
   361.60         1.7080
   361.74         1.7659
   361.88         1.8207
   362.02         1.8667
   362.16         1.9007
   362.30         1.9221
   362.44         1.9325
   362.58         1.9352
   362.72         1.9345
   362.86         1.9351
   363.00         1.9403
   363.14         1.9510
   363.28         1.9671
   363.42         1.9878
   363.56         2.0116
   363.70         2.0362
   363.84         2.0593
   363.98         2.0796
   364.12         2.0968
   364.26         2.1117
   364.40         2.1277
   364.54         2.1504
   364.68         2.1868
   364.82         2.2430
   364.96         2.3223
   365.10         2.4250
   365.24         2.5481
   365.38         2.6849
   365.52         2.8258
   365.66         2.9589
   365.80         3.0733
   365.94         3.1624
   366.08         3.2236
   366.22         3.2575
   366.36         3.2668
   366.50         3.2548
   366.64         3.2235
   366.78         3.1737
   366.92         3.1059
   367.06         3.0218
   367.20         2.9247
   367.34         2.8183
   367.48         2.7064
   367.62         2.5945
   367.76         2.4898
   367.90         2.4003
   368.04         2.3327
   368.18         2.2915
   368.32         2.2795
   368.46         2.2983
   368.60         2.3474
   368.74         2.4231
   368.88         2.5183
   369.02         2.6230
   369.16         2.7245
   369.30         2.8093
   369.44         2.8667
   369.58         2.8899
   369.72         2.8766
   369.86         2.8296
   370.00         2.7559
   370.14         2.6657
   370.28         2.5701
   370.42         2.4783
   370.56         2.3949
   370.70         2.3201
   370.84         2.2524
   370.98         2.1897
   371.12         2.1305
   371.26         2.0733
   371.40         2.0160
   371.54         1.9558
   371.68         1.8907
   371.82         1.8199
   371.96         1.7453
   372.10         1.6698
   372.24         1.5964
   372.38         1.5277
   372.52         1.4656
   372.66         1.4102
   372.80         1.3601
   372.94         1.3135
   373.08         1.2688
   373.22         1.2250
   373.36         1.1826
   373.50         1.1434
   373.64         1.1099
   373.78         1.0847
   373.92         1.0698
   374.06         1.0668
   374.20         1.0772
   374.34         1.1015
   374.48         1.1388
   374.62         1.1861
   374.76         1.2399
   374.90         1.2974
   375.04         1.3570
   375.18         1.4170
   375.32         1.4756
   375.46         1.5315
   375.60         1.5841
   375.74         1.6342
   375.88         1.6845
   376.02         1.7396
   376.16         1.8049
   376.30         1.8846
   376.44         1.9811
   376.58         2.0949
   376.72         2.2235
   376.86         2.3618
   377.00         2.5020
   377.14         2.6353
   377.28         2.7528
   377.42         2.8467
   377.56         2.9106
   377.70         2.9403
   377.84         2.9357
   377.98         2.9005
   378.12         2.8417
   378.26         2.7666
   378.40         2.6820
   378.54         2.5936
   378.68         2.5060
   378.82         2.4237
   378.96         2.3520
   379.10         2.2969
   379.24         2.2631
   379.38         2.2521
   379.52         2.2623
   379.66         2.2896
   379.80         2.3286
   379.94         2.3726
   380.08         2.4140
   380.22         2.4456
   380.36         2.4620
   380.50         2.4599
   380.64         2.4359
   380.78         2.3871
   380.92         2.3125
   381.06         2.2141
   381.20         2.0966
   381.34         1.9669
   381.48         1.8328
   381.62         1.7014
   381.76         1.5786
   381.90         1.4684
   382.04         1.3729
   382.18         1.2935
   382.32         1.2314
   382.46         1.1866
   382.60         1.1569
   382.74         1.1395
   382.88         1.1325
   383.02         1.1365
   383.16         1.1532
   383.30         1.1843
   383.44         1.2312
   383.58         1.2942
   383.72         1.3718
   383.86         1.4605
   384.00         1.5558
   384.14         1.6528
   384.28         1.7449
   384.42         1.8251
   384.56         1.8868
   384.70         1.9246
   384.84         1.9369
   384.98         1.9251
   385.12         1.8931
   385.26         1.8467
   385.40         1.7944
   385.54         1.7459
   385.68         1.7096
   385.82         1.6909
   385.96         1.6913
   386.10         1.7093
   386.24         1.7413
   386.38         1.7827
   386.52         1.8281
   386.66         1.8720
   386.80         1.9091
   386.94         1.9355
   387.08         1.9498
   387.22         1.9522
   387.36         1.9440
   387.50         1.9280
   387.64         1.9082
   387.78         1.8894
   387.92         1.8768
   388.06         1.8743
   388.20         1.8838
   388.34         1.9048
   388.48         1.9354
   388.62         1.9731
   388.76         2.0147
   388.90         2.0567
   389.04         2.0951
   389.18         2.1265
   389.32         2.1491
   389.46         2.1630
   389.60         2.1701
   389.74         2.1734
   389.88         2.1773
   390.02         2.1874
   390.16         2.2087
   390.30         2.2443
   390.44         2.2933
   390.58         2.3510
   390.72         2.4094
   390.86         2.4599
   391.00         2.4950
   391.14         2.5098
   391.28         2.5011
   391.42         2.4671
   391.56         2.4081
   391.70         2.3259
   391.84         2.2239
   391.98         2.1071
   392.12         1.9816
   392.26         1.8537
   392.40         1.7291
   392.54         1.6131
   392.68         1.5105
   392.82         1.4247
   392.96         1.3573
   393.10         1.3092
   393.24         1.2812
   393.38         1.2751
   393.52         1.2924
   393.66         1.3346
   393.80         1.4018
   393.94         1.4919
   394.08         1.6007
   394.22         1.7225
   394.36         1.8501
   394.50         1.9758
   394.64         2.0908
   394.78         2.1867
   394.92         2.2563
   395.06         2.2942
   395.20         2.2978
   395.34         2.2666
   395.48         2.2021
   395.62         2.1085
   395.76         1.9934
   395.90         1.8680
   396.04         1.7449
   396.18         1.6369
   396.32         1.5557
   396.46         1.5107
   396.60         1.5085
   396.74         1.5516
   396.88         1.6388
   397.02         1.7658
   397.16         1.9257
   397.30         2.1106
   397.44         2.3120
   397.58         2.5214
   397.72         2.7307
   397.86         2.9327
   398.00         3.1216
   398.14         3.2929
   398.28         3.4435
   398.42         3.5722
   398.56         3.6798
   398.70         3.7688
   398.84         3.8429
   398.98         3.9062
   399.12         3.9610
   399.26         4.0081
   399.40         4.0478
   399.54         4.0817
   399.68         4.1123
   399.82         4.1424
   399.96         4.1747
   400.10         4.2115
   400.24         4.2533
   400.38         4.3002
   400.52         4.3510
   400.66         4.4039
   400.80         4.4569
   400.94         4.5085
   401.08         4.5578
   401.22         4.6050
   401.36         4.6505
   401.50         4.6935
   401.64         4.7304
   401.78         4.7552
   401.92         4.7614
   402.06         4.7451
   402.20         4.7059
   402.34         4.6475
   402.48         4.5771
   402.62         4.5031
   402.76         4.4334
   402.90         4.3737
   403.04         4.3263
   403.18         4.2898
   403.32         4.2604
   403.46         4.2352
   403.60         4.2139
   403.74         4.1990
   403.88         4.1934
   404.02         4.1986
   404.16         4.2130
   404.30         4.2340
   404.44         4.2592
   404.58         4.2888
   404.72         4.3247
   404.86         4.3668
   405.00         4.4110
   405.14         4.4495
   405.28         4.4744
   405.42         4.4791
   405.56         4.4608
   405.70         4.4205
   405.84         4.3630
   405.98         4.2981
   406.12         4.2381
   406.26         4.1933
   406.40         4.1689
   406.54         4.1656
   406.68         4.1823
   406.82         4.2189
   406.96         4.2751
   407.10         4.3500
   407.24         4.4426
   407.38         4.5519
   407.52         4.6767
   407.66         4.8160
   407.80         4.9683
   407.94         5.1303
   408.08         5.2952
   408.22         5.4534
   408.36         5.5930
   408.50         5.7024
   408.64         5.7724
   408.78         5.7969
   408.92         5.7737
   409.06         5.7065
   409.20         5.6046
   409.34         5.4811
   409.48         5.3495
   409.62         5.2223
   409.76         5.1102
   409.90         5.0217
   410.04         4.9626
   410.18         4.9354
   410.32         4.9391
   410.46         4.9696
   410.60         5.0205
   410.74         5.0841
   410.88         5.1521
   411.02         5.2180
   411.16         5.2773
   411.30         5.3280
   411.44         5.3696
   411.58         5.4020
   411.72         5.4242
   411.86         5.4330
   412.00         5.4242
   412.14         5.3954
   412.28         5.3481
   412.42         5.2873
   412.56         5.2209
   412.70         5.1576
   412.84         5.1023
   412.98         5.0545
   413.12         5.0110
   413.26         4.9688
   413.40         4.9274
   413.54         4.8885
   413.68         4.8544
   413.82         4.8270
   413.96         4.8072
   414.10         4.7949
   414.24         4.7901
   414.38         4.7935
   414.52         4.8074
   414.66         4.8362
   414.80         4.8845
   414.94         4.9546
   415.08         5.0447
   415.22         5.1475
   415.36         5.2519
   415.50         5.3461
   415.64         5.4218
   415.78         5.4749
   415.92         5.5043
   416.06         5.5094
   416.20         5.4899
   416.34         5.4473
   416.48         5.3854
   416.62         5.3110
   416.76         5.2328
   416.90         5.1595
   417.04         5.0980
   417.18         5.0529
   417.32         5.0259
   417.46         5.0152
   417.60         5.0171
   417.74         5.0274
   417.88         5.0420
   418.02         5.0587
   418.16         5.0766
   418.30         5.0945
   418.44         5.1094
   418.58         5.1172
   418.72         5.1146
   418.86         5.1004
   419.00         5.0751
   419.14         5.0408
   419.28         5.0015
   419.42         4.9616
   419.56         4.9257
   419.70         4.8993
   419.84         4.8883
   419.98         4.8985
   420.12         4.9334
   420.26         4.9929
   420.40         5.0728
   420.54         5.1653
   420.68         5.2603
   420.82         5.3458
   420.96         5.4079
   421.10         5.4315
   421.24         5.4036
   421.38         5.3156
   421.52         5.1657
   421.66         4.9605
   421.80         4.7147
   421.94         4.4481
   422.08         4.1820
   422.22         3.9365
   422.36         3.7293
   422.50         3.5745
   422.64         3.4825
   422.78         3.4579
   422.92         3.5008
   423.06         3.6075
   423.20         3.7704
   423.34         3.9762
   423.48         4.2060
   423.62         4.4366
   423.76         4.6455
   423.90         4.8149
   424.04         4.9343
   424.18         5.0007
   424.32         5.0174
   424.46         4.9924
   424.60         4.9349
   424.74         4.8534
   424.88         4.7576
   425.02         4.6602
   425.16         4.5760
   425.30         4.5188
   425.44         4.4973
   425.58         4.5138
   425.72         4.5624
   425.86         4.6304
   426.00         4.7003
   426.14         4.7548
   426.28         4.7816
   426.42         4.7772
   426.56         4.7455
   426.70         4.6957
   426.84         4.6387
   426.98         4.5860
   427.12         4.5469
   427.26         4.5279
   427.40         4.5319
   427.54         4.5587
   427.68         4.6035
   427.82         4.6575
   427.96         4.7100
   428.10         4.7510
   428.24         4.7729
   428.38         4.7718
   428.52         4.7473
   428.66         4.7022
   428.80         4.6428
   428.94         4.5769
   429.08         4.5112
   429.22         4.4496
   429.36         4.3921
   429.50         4.3362
   429.64         4.2798
   429.78         4.2233
   429.92         4.1696
   430.06         4.1238
   430.20         4.0929
   430.34         4.0874
   430.48         4.1194
   430.62         4.1988
   430.76         4.3296
   430.90         4.5082
   431.04         4.7235
   431.18         4.9568
   431.32         5.1875
   431.46         5.3980
   431.60         5.5775
   431.74         5.7218
   431.88         5.8315
   432.02         5.9115
   432.16         5.9710
   432.30         6.0213
   432.44         6.0724
   432.58         6.1301
   432.72         6.1956
   432.86         6.2680
   433.00         6.3458
   433.14         6.4259
   433.28         6.5038
   433.42         6.5750
   433.56         6.6357
   433.70         6.6835
   433.84         6.7173
   433.98         6.7394
   434.12         6.7547
   434.26         6.7686
   434.40         6.7846
   434.54         6.8034
   434.68         6.8243
   434.82         6.8460
   434.96         6.8678
   435.10         6.8908
   435.24         6.9180
   435.38         6.9540
   435.52         7.0023
   435.66         7.0638
   435.80         7.1351
   435.94         7.2093
   436.08         7.2774
   436.22         7.3288
   436.36         7.3534
   436.50         7.3444
   436.64         7.3006
   436.78         7.2250
   436.92         7.1210
   437.06         6.9894
   437.20         6.8306
   437.34         6.6491
   437.48         6.4542
   437.62         6.2585
   437.76         6.0749
   437.90         5.9153
   438.04         5.7897
   438.18         5.7060
   438.32         5.6706
   438.46         5.6874
   438.60         5.7565
   438.74         5.8716
   438.88         6.0204
   439.02         6.1854
   439.16         6.3456
   439.30         6.4789
   439.44         6.5671
   439.58         6.6017
   439.72         6.5866
   439.86         6.5370
   440.00         6.4725
   440.14         6.4093
   440.28         6.3585
   440.42         6.3281
   440.56         6.3256
   440.70         6.3570
   440.84         6.4249
   440.98         6.5260
   441.12         6.6516
   441.26         6.7871
   441.40         6.9160
   441.54         7.0244
   441.68         7.1048
   441.82         7.1565
   441.96         7.1841
   442.10         7.1940
   442.24         7.1909
   442.38         7.1779
   442.52         7.1581
   442.66         7.1354
   442.80         7.1142
   442.94         7.0995
   443.08         7.0973
   443.22         7.1125
   443.36         7.1468
   443.50         7.1989
   443.64         7.2650
   443.78         7.3404
   443.92         7.4188
   444.06         7.4914
   444.20         7.5483
   444.34         7.5793
   444.48         7.5761
   444.62         7.5339
   444.76         7.4527
   444.90         7.3394
   445.04         7.2079
   445.18         7.0751
   445.32         6.9570
   445.46         6.8666
   445.60         6.8145
   445.74         6.8097
   445.88         6.8576
   446.02         6.9579
   446.16         7.1040
   446.30         7.2848
   446.44         7.4865
   446.58         7.6936
   446.72         7.8903
   446.86         8.0632
   447.00         8.2045
   447.14         8.3125
   447.28         8.3896
   447.42         8.4416
   447.56         8.4748
   447.70         8.4947
   447.84         8.5059
   447.98         8.5113
   448.12         8.5114
   448.26         8.5056
   448.40         8.4938
   448.54         8.4781
   448.68         8.4618
   448.82         8.4497
   448.96         8.4466
   449.10         8.4568
   449.24         8.4831
   449.38         8.5270
   449.52         8.5898
   449.66         8.6720
   449.80         8.7710
   449.94         8.8803
   450.08         8.9896
   450.22         9.0877
   450.36         9.1651
   450.50         9.2156
   450.64         9.2372
   450.78         9.2314
   450.92         9.2033
   451.06         9.1596
   451.20         9.1063
   451.34         9.0456
   451.48         8.9764
   451.62         8.8966
   451.76         8.8053
   451.90         8.7011
   452.04         8.5822
   452.18         8.4472
   452.32         8.2995
   452.46         8.1479
   452.60         8.0052
   452.74         7.8840
   452.88         7.7956
   453.02         7.7481
   453.16         7.7454
   453.30         7.7861
   453.44         7.8632
   453.58         7.9654
   453.72         8.0793
   453.86         8.1920
   454.00         8.2925
   454.14         8.3744
   454.28         8.4366
   454.42         8.4820
   454.56         8.5149
   454.70         8.5423
   454.84         8.5735
   454.98         8.6178
   455.12         8.6796
   455.26         8.7583
   455.40         8.8498
   455.54         8.9484
   455.68         9.0463
   455.82         9.1356
   455.96         9.2105
   456.10         9.2687
   456.24         9.3110
   456.38         9.3400
   456.52         9.3575
   456.66         9.3641
   456.80         9.3608
   456.94         9.3501
   457.08         9.3344
   457.22         9.3152
   457.36         9.2937
   457.50         9.2719
   457.64         9.2513
   457.78         9.2340
   457.92         9.2222
   458.06         9.2170
   458.20         9.2175
   458.34         9.2228
   458.48         9.2328
   458.62         9.2473
   458.76         9.2645
   458.90         9.2810
   459.04         9.2929
   459.18         9.2980
   459.32         9.2969
   459.46         9.2937
   459.60         9.2940
   459.74         9.3031
   459.88         9.3242
   460.02         9.3586
   460.16         9.4056
   460.30         9.4623
   460.44         9.5239
   460.58         9.5853
   460.72         9.6424
   460.86         9.6917
   461.00         9.7306
   461.14         9.7574
