# File HD56183
# Wavelength [nm]    Normalized Amplitude
   349.70         41.5111
   349.84         41.5869
   349.98         41.6594
   350.12         41.7230
   350.26         41.7724
   350.40         41.8024
   350.54         41.8123
   350.68         41.8084
   350.82         41.7986
   350.96         41.7904
   351.10         41.7874
   351.24         41.7904
   351.38         41.7986
   351.52         41.8084
   351.66         41.8123
   351.80         41.8024
   351.94         41.7724
   352.08         41.7230
   352.22         41.6594
   352.36         41.5869
   352.50         41.5111
   352.64         41.4381
   352.78         41.3725
   352.92         41.3158
   353.06         41.2685
   353.20         41.2355
   353.34         41.2224
   353.48         41.2292
   353.62         41.2483
   353.76         41.2688
   353.90         41.2808
   354.04         41.2754
   354.18         41.2430
   354.32         41.1794
   354.46         41.0881
   354.60         40.9744
   354.74         40.8448
   354.88         40.7052
   355.02         40.5594
   355.16         40.4091
   355.30         40.2563
   355.44         40.1067
   355.58         39.9717
   355.72         39.8657
   355.86         39.7999
   356.00         39.7778
   356.14         39.7951
   356.28         39.8435
   356.42         39.9150
   356.56         40.0018
   356.70         40.0938
   356.84         40.1796
   356.98         40.2500
   357.12         40.2964
   357.26         40.3093
   357.40         40.2799
   357.54         40.2026
   357.68         40.0765
   357.82         39.9078
   357.96         39.7142
   358.10         39.5205
   358.24         39.3475
   358.38         39.2067
   358.52         39.1035
   358.66         39.0409
   358.80         39.0184
   358.94         39.0329
   359.08         39.0801
   359.22         39.1560
   359.36         39.2527
   359.50         39.3580
   359.64         39.4589
   359.78         39.5452
   359.92         39.6074
   360.06         39.6360
   360.20         39.6276
   360.34         39.5863
   360.48         39.5232
   360.62         39.4524
   360.76         39.3838
   360.90         39.3214
   361.04         39.2656
   361.18         39.2186
   361.32         39.1849
   361.46         39.1674
   361.60         39.1668
   361.74         39.1823
   361.88         39.2092
   362.02         39.2383
   362.16         39.2591
   362.30         39.2635
   362.44         39.2454
   362.58         39.2002
   362.72         39.1300
   362.86         39.0456
   363.00         38.9608
   363.14         38.8885
   363.28         38.8363
   363.42         38.8035
   363.56         38.7843
   363.70         38.7709
   363.84         38.7583
   363.98         38.7434
   364.12         38.7222
   364.26         38.6912
   364.40         38.6503
   364.54         38.6021
   364.68         38.5475
   364.82         38.4859
   364.96         38.4185
   365.10         38.3496
   365.24         38.2834
   365.38         38.2242
   365.52         38.1738
   365.66         38.1284
   365.80         38.0793
   365.94         38.0170
   366.08         37.9339
   366.22         37.8290
   366.36         37.7088
   366.50         37.5869
   366.64         37.4798
   366.78         37.3986
   366.92         37.3462
   367.06         37.3207
   367.20         37.3162
   367.34         37.3228
   367.48         37.3299
   367.62         37.3309
   367.76         37.3238
   367.90         37.3095
   368.04         37.2897
   368.18         37.2662
   368.32         37.2394
   368.46         37.2085
   368.60         37.1742
   368.74         37.1390
   368.88         37.1059
   369.02         37.0767
   369.16         37.0501
   369.30         37.0200
   369.44         36.9791
   369.58         36.9256
   369.72         36.8629
   369.86         36.7949
   370.00         36.7240
   370.14         36.6547
   370.28         36.5979
   370.42         36.5668
   370.56         36.5700
   370.70         36.6073
   370.84         36.6703
   370.98         36.7428
   371.12         36.8053
   371.26         36.8439
   371.40         36.8554
   371.54         36.8486
   371.68         36.8384
   371.82         36.8364
   371.96         36.8478
   372.10         36.8691
   372.24         36.8864
   372.38         36.8813
   372.52         36.8441
   372.66         36.7834
   372.80         36.7248
   372.94         36.7025
   373.08         36.7454
   373.22         36.8688
   373.36         37.0711
   373.50         37.3351
   373.64         37.6279
   373.78         37.9066
   373.92         38.1272
   374.06         38.2514
   374.20         38.2549
   374.34         38.1326
   374.48         37.9040
   374.62         37.6130
   374.76         37.3227
   374.90         37.1083
   375.04         37.0481
   375.18         37.2056
   375.32         37.6098
   375.46         38.2416
   375.60         39.0294
   375.74         39.8591
   375.88         40.5962
   376.02         41.1136
   376.16         41.3213
   376.30         41.1875
   376.44         40.7482
   376.58         40.1004
   376.72         39.3797
   376.86         38.7324
   377.00         38.2953
   377.14         38.1786
   377.28         38.4511
   377.42         39.1305
   377.56         40.1799
   377.70         41.5141
   377.84         43.0131
   377.98         44.5363
   378.12         45.9337
   378.26         47.0604
   378.40         47.7941
   378.54         48.0521
   378.68         47.8065
   378.82         47.0868
   378.96         45.9709
   379.10         44.5751
   379.24         43.0449
   379.38         41.5405
   379.52         40.2202
   379.66         39.2259
   379.80         38.6654
   379.94         38.5989
   380.08         39.0376
   380.22         39.9481
   380.36         41.2551
   380.50         42.8445
   380.64         44.5679
   380.78         46.2600
   380.92         47.7673
   381.06         48.9766
   381.20         49.8319
   381.34         50.3304
   381.48         50.5045
   381.62         50.4053
   381.76         50.0914
   381.90         49.6133
   382.04         48.9985
   382.18         48.2497
   382.32         47.3571
   382.46         46.3116
   382.60         45.1182
   382.74         43.8050
   382.88         42.4223
   383.02         41.0401
   383.16         39.7457
   383.30         38.6396
   383.44         37.8267
   383.58         37.4014
   383.72         37.4291
   383.86         37.9308
   384.00         38.8768
   384.14         40.1945
   384.28         41.7815
   384.42         43.5194
   384.56         45.2895
   384.70         46.9839
   384.84         48.5158
   384.98         49.8304
   385.12         50.9057
   385.26         51.7470
   385.40         52.3780
   385.54         52.8289
   385.68         53.1282
   385.82         53.2995
   385.96         53.3603
   386.10         53.3229
   386.24         53.1990
   386.38         52.9994
   386.52         52.7331
   386.66         52.4070
   386.80         52.0255
   386.94         51.5896
   387.08         51.0943
   387.22         50.5235
   387.36         49.8467
   387.50         49.0241
   387.64         48.0186
   387.78         46.8058
   387.92         45.3849
   388.06         43.7889
   388.20         42.0853
   388.34         40.3695
   388.48         38.7549
   388.62         37.3615
   388.76         36.3042
   388.90         35.6766
   389.04         35.5363
   389.18         35.9002
   389.32         36.7443
   389.46         38.0038
   389.60         39.5803
   389.74         41.3554
   389.88         43.2059
   390.02         45.0175
   390.16         46.6988
   390.30         48.1897
   390.44         49.4607
   390.58         50.5078
   390.72         51.3450
   390.86         51.9944
   391.00         52.4776
   391.14         52.8147
   391.28         53.0227
   391.42         53.1139
   391.56         53.0986
   391.70         52.9903
   391.84         52.8079
   391.98         52.5731
   392.12         52.3059
   392.26         52.0274
   392.40         51.7616
   392.54         51.5303
   392.68         51.3508
   392.82         51.2322
   392.96         51.1741
   393.10         51.1677
   393.24         51.2013
   393.38         51.2624
   393.52         51.3350
   393.66         51.4013
   393.80         51.4468
   393.94         51.4619
   394.08         51.4425
   394.22         51.3882
   394.36         51.2989
   394.50         51.1709
   394.64         50.9970
   394.78         50.7665
   394.92         50.4683
   395.06         50.0894
   395.20         49.6108
   395.34         49.0047
   395.48         48.2367
   395.62         47.2742
   395.76         46.0946
   395.90         44.6938
   396.04         43.0965
   396.18         41.3622
   396.32         39.5820
   396.46         37.8675
   396.60         36.3353
   396.74         35.0928
   396.88         34.2274
   397.02         33.7995
   397.16         33.8361
   397.30         34.3277
   397.44         35.2298
   397.58         36.4676
   397.72         37.9429
   397.86         39.5438
   398.00         41.1577
   398.14         42.6866
   398.28         44.0564
   398.42         45.2231
   398.56         46.1747
   398.70         46.9247
   398.84         47.5002
   398.98         47.9305
   399.12         48.2404
   399.26         48.4484
   399.40         48.5664
   399.54         48.6022
   399.68         48.5606
   399.82         48.4463
   399.96         48.2674
   400.10         48.0380
   400.24         47.7773
   400.38         47.5071
   400.52         47.2504
   400.66         47.0281
   400.80         46.8539
   400.94         46.7304
   401.08         46.6478
   401.22         46.5814
   401.36         46.4942
   401.50         46.3492
   401.64         46.1204
   401.78         45.8002
   401.92         45.4035
   402.06         44.9636
   402.20         44.5221
   402.34         44.1226
   402.48         43.8093
   402.62         43.6240
   402.76         43.5969
   402.90         43.7386
   403.04         44.0372
   403.18         44.4635
   403.32         44.9753
   403.46         45.5219
   403.60         46.0509
   403.74         46.5168
   403.88         46.8882
   404.02         47.1533
   404.16         47.3209
   404.30         47.4115
   404.44         47.4448
   404.58         47.4369
   404.72         47.3986
   404.86         47.3373
   405.00         47.2621
   405.14         47.1841
   405.28         47.1117
   405.42         47.0468
   405.56         46.9879
   405.70         46.9319
   405.84         46.8751
   405.98         46.8133
   406.12         46.7440
   406.26         46.6688
   406.40         46.5909
   406.54         46.5110
   406.68         46.4282
   406.82         46.3420
   406.96         46.2528
   407.10         46.1621
   407.24         46.0720
   407.38         45.9820
   407.52         45.8862
   407.66         45.7747
   407.80         45.6339
   407.94         45.4464
   408.08         45.1940
   408.22         44.8597
   408.36         44.4260
   408.50         43.8747
   408.64         43.1862
   408.78         42.3405
   408.92         41.3187
   409.06         40.1105
   409.20         38.7304
   409.34         37.2250
   409.48         35.6700
   409.62         34.1599
   409.76         32.7962
   409.90         31.6765
   410.04         30.8828
   410.18         30.4721
   410.32         30.4697
   410.46         30.8667
   410.60         31.6213
   410.74         32.6637
   410.88         33.9016
   411.02         35.2306
   411.16         36.5485
   411.30         37.7692
   411.44         38.8316
   411.58         39.7045
   411.72         40.3875
   411.86         40.9053
   412.00         41.2949
   412.14         41.5958
   412.28         41.8428
   412.42         42.0595
   412.56         42.2570
   412.70         42.4375
   412.84         42.5959
   412.98         42.7206
   413.12         42.7943
   413.26         42.8001
   413.40         42.7296
   413.54         42.5875
   413.68         42.3902
   413.82         42.1616
   413.96         41.9283
   414.10         41.7150
   414.24         41.5439
   414.38         41.4341
   414.52         41.3977
   414.66         41.4385
   414.80         41.5513
   414.94         41.7215
   415.08         41.9282
   415.22         42.1488
   415.36         42.3624
   415.50         42.5491
   415.64         42.6932
   415.78         42.7876
   415.92         42.8364
   416.06         42.8514
   416.20         42.8443
   416.34         42.8230
   416.48         42.7930
   416.62         42.7578
   416.76         42.7185
   416.90         42.6748
   417.04         42.6246
   417.18         42.5650
   417.32         42.4949
   417.46         42.4135
   417.60         42.3197
   417.74         42.2140
   417.88         42.0986
   418.02         41.9783
   418.16         41.8596
   418.30         41.7513
   418.44         41.6616
   418.58         41.5960
   418.72         41.5565
   418.86         41.5408
   419.00         41.5426
   419.14         41.5539
   419.28         41.5671
   419.42         41.5759
   419.56         41.5753
   419.70         41.5616
   419.84         41.5328
   419.98         41.4896
   420.12         41.4347
   420.26         41.3733
   420.40         41.3114
   420.54         41.2543
   420.68         41.2048
   420.82         41.1643
   420.96         41.1329
   421.10         41.1083
   421.24         41.0849
   421.38         41.0565
   421.52         41.0182
   421.66         40.9669
   421.80         40.9032
   421.94         40.8303
   422.08         40.7524
   422.22         40.6724
   422.36         40.5925
   422.50         40.5161
   422.64         40.4469
   422.78         40.3871
   422.92         40.3365
   423.06         40.2936
   423.20         40.2572
   423.34         40.2265
   423.48         40.1998
   423.62         40.1742
   423.76         40.1473
   423.90         40.1171
   424.04         40.0812
   424.18         40.0384
   424.32         39.9890
   424.46         39.9347
   424.60         39.8768
   424.74         39.8148
   424.88         39.7461
   425.02         39.6677
   425.16         39.5779
   425.30         39.4756
   425.44         39.3604
   425.58         39.2328
   425.72         39.0942
   425.86         38.9488
   426.00         38.8020
   426.14         38.6605
   426.28         38.5325
   426.42         38.4264
   426.56         38.3459
   426.70         38.2924
   426.84         38.2671
   426.98         38.2694
   427.12         38.2941
   427.26         38.3324
   427.40         38.3737
   427.54         38.4094
   427.68         38.4348
   427.82         38.4494
   427.96         38.4543
   428.10         38.4490
   428.24         38.4326
   428.38         38.4065
   428.52         38.3730
   428.66         38.3331
   428.80         38.2879
   428.94         38.2384
   429.08         38.1854
   429.22         38.1291
   429.36         38.0705
   429.50         38.0114
   429.64         37.9524
   429.78         37.8935
   429.92         37.8360
   430.06         37.7822
   430.20         37.7342
   430.34         37.6901
   430.48         37.6439
   430.62         37.5876
   430.76         37.5142
   430.90         37.4213
   431.04         37.3094
   431.18         37.1785
   431.32         37.0293
   431.46         36.8637
   431.60         36.6818
   431.74         36.4807
   431.88         36.2541
   432.02         35.9938
   432.16         35.6909
   432.30         35.3335
   432.44         34.9075
   432.58         34.3957
   432.72         33.7786
   432.86         33.0389
   433.00         32.1688
   433.14         31.1777
   433.28         30.0968
   433.42         28.9772
   433.56         27.8838
   433.70         26.8870
   433.84         26.0556
   433.98         25.4501
   434.12         25.1154
   434.26         25.0757
   434.40         25.3316
   434.54         25.8621
   434.68         26.6265
   434.82         27.5667
   434.96         28.6130
   435.10         29.6928
   435.24         30.7410
   435.38         31.7058
   435.52         32.5541
   435.66         33.2731
   435.80         33.8672
   435.94         34.3504
   436.08         34.7393
   436.22         35.0485
   436.36         35.2906
   436.50         35.4775
   436.64         35.6193
   436.78         35.7235
   436.92         35.7940
   437.06         35.8323
   437.20         35.8365
   437.34         35.8006
   437.48         35.7160
   437.62         35.5743
   437.76         35.3715
   437.90         35.1121
   438.04         34.8101
   438.18         34.4863
   438.32         34.1661
   438.46         33.8758
   438.60         33.6398
   438.74         33.4781
   438.88         33.4035
   439.02         33.4205
   439.16         33.5235
   439.30         33.6969
   439.44         33.9180
   439.58         34.1619
   439.72         34.4043
   439.86         34.6219
   440.00         34.7951
   440.14         34.9136
   440.28         34.9770
   440.42         34.9944
   440.56         34.9796
   440.70         34.9466
   440.84         34.9065
   440.98         34.8678
   441.12         34.8363
   441.26         34.8140
   441.40         34.7974
   441.54         34.7790
   441.68         34.7516
   441.82         34.7104
   441.96         34.6526
   442.10         34.5761
   442.24         34.4805
   442.38         34.3650
   442.52         34.2284
   442.66         34.0722
   442.80         33.9025
   442.94         33.7287
   443.08         33.5626
   443.22         33.4148
   443.36         33.2946
   443.50         33.2090
   443.64         33.1604
   443.78         33.1481
   443.92         33.1694
   444.06         33.2188
   444.20         33.2881
   444.34         33.3695
   444.48         33.4542
   444.62         33.5338
   444.76         33.6018
   444.90         33.6545
   445.04         33.6886
   445.18         33.7022
   445.32         33.6957
   445.46         33.6678
   445.60         33.6134
   445.74         33.5204
   445.88         33.3707
   446.02         33.1467
   446.16         32.8413
   446.30         32.4624
   446.44         32.0324
   446.58         31.5829
   446.72         31.1476
   446.86         30.7588
   447.00         30.4455
   447.14         30.2298
   447.28         30.1247
   447.42         30.1337
   447.56         30.2493
   447.70         30.4531
   447.84         30.7202
   447.98         31.0218
   448.12         31.3286
   448.26         31.6155
   448.40         31.8634
   448.54         32.0621
   448.68         32.2127
   448.82         32.3253
   448.96         32.4108
   449.10         32.4754
   449.24         32.5216
   449.38         32.5506
   449.52         32.5632
   449.66         32.5604
   449.80         32.5443
   449.94         32.5181
   450.08         32.4857
   450.22         32.4502
   450.36         32.4144
   450.50         32.3811
   450.64         32.3521
   450.78         32.3270
   450.92         32.3038
   451.06         32.2779
   451.20         32.2446
   451.34         32.2031
   451.48         32.1543
   451.62         32.1000
   451.76         32.0435
   451.90         31.9873
   452.04         31.9312
   452.18         31.8749
   452.32         31.8197
   452.46         31.7694
   452.60         31.7294
   452.74         31.7037
   452.88         31.6921
   453.02         31.6908
   453.16         31.6926
   453.30         31.6881
   453.44         31.6696
   453.58         31.6324
   453.72         31.5751
   453.86         31.4993
   454.00         31.4093
   454.14         31.3101
   454.28         31.2088
   454.42         31.1143
   454.56         31.0352
   454.70         30.9794
   454.84         30.9533
   454.98         30.9589
   455.12         30.9923
   455.26         31.0458
   455.40         31.1074
   455.54         31.1641
   455.68         31.2057
   455.82         31.2260
   455.96         31.2228
   456.10         31.1966
   456.24         31.1492
   456.38         31.0848
   456.52         31.0101
   456.66         30.9326
   456.80         30.8600
   456.94         30.8001
