# File HD56030
# Wavelength [nm]    Normalized Amplitude
   349.70         11.0334
   349.84         11.1186
   349.98         11.2073
   350.12         11.2933
   350.26         11.3725
   350.40         11.4405
   350.54         11.4926
   350.68         11.5270
   350.82         11.5463
   350.96         11.5554
   351.10         11.5580
   351.24         11.5554
   351.38         11.5463
   351.52         11.5270
   351.66         11.4926
   351.80         11.4405
   351.94         11.3725
   352.08         11.2933
   352.22         11.2073
   352.36         11.1186
   352.50         11.0334
   352.64         10.9601
   352.78         10.9086
   352.92         10.8864
   353.06         10.8967
   353.20         10.9391
   353.34         11.0096
   353.48         11.1009
   353.62         11.2030
   353.76         11.3055
   353.90         11.4016
   354.04         11.4884
   354.18         11.5656
   354.32         11.6338
   354.46         11.6925
   354.60         11.7391
   354.74         11.7703
   354.88         11.7848
   355.02         11.7836
   355.16         11.7694
   355.30         11.7445
   355.44         11.7080
   355.58         11.6569
   355.72         11.5893
   355.86         11.5045
   356.00         11.4029
   356.14         11.2859
   356.28         11.1572
   356.42         11.0245
   356.56         10.8970
   356.70         10.7815
   356.84         10.6805
   356.98         10.5938
   357.12         10.5209
   357.26         10.4606
   357.40         10.4092
   357.54         10.3610
   357.68         10.3105
   357.82         10.2546
   357.96         10.1947
   358.10         10.1368
   358.24         10.0900
   358.38         10.0631
   358.52         10.0647
   358.66         10.1024
   358.80         10.1817
   358.94         10.3034
   359.08         10.4610
   359.22         10.6401
   359.36         10.8207
   359.50         10.9824
   359.64         11.1078
   359.78         11.1851
   359.92         11.2085
   360.06         11.1777
   360.20         11.1000
   360.34         10.9891
   360.48         10.8622
   360.62         10.7348
   360.76         10.6178
   360.90         10.5176
   361.04         10.4389
   361.18         10.3853
   361.32         10.3587
   361.46         10.3594
   361.60         10.3867
   361.74         10.4375
   361.88         10.5053
   362.02         10.5807
   362.16         10.6546
   362.30         10.7200
   362.44         10.7716
   362.58         10.8065
   362.72         10.8245
   362.86         10.8298
   363.00         10.8284
   363.14         10.8252
   363.28         10.8232
   363.42         10.8258
   363.56         10.8357
   363.70         10.8543
   363.84         10.8808
   363.98         10.9141
   364.12         10.9530
   364.26         10.9946
   364.40         11.0352
   364.54         11.0723
   364.68         11.1060
   364.82         11.1394
   364.96         11.1786
   365.10         11.2285
   365.24         11.2902
   365.38         11.3612
   365.52         11.4355
   365.66         11.5047
   365.80         11.5603
   365.94         11.5968
   366.08         11.6123
   366.22         11.6096
   366.36         11.5942
   366.50         11.5728
   366.64         11.5506
   366.78         11.5313
   366.92         11.5162
   367.06         11.5051
   367.20         11.4974
   367.34         11.4915
   367.48         11.4853
   367.62         11.4752
   367.76         11.4571
   367.90         11.4311
   368.04         11.4010
   368.18         11.3733
   368.32         11.3551
   368.46         11.3507
   368.60         11.3595
   368.74         11.3792
   368.88         11.4088
   369.02         11.4475
   369.16         11.4930
   369.30         11.5402
   369.44         11.5811
   369.58         11.6075
   369.72         11.6132
   369.86         11.5967
   370.00         11.5603
   370.14         11.5105
   370.28         11.4584
   370.42         11.4180
   370.56         11.4035
   370.70         11.4249
   370.84         11.4846
   370.98         11.5759
   371.12         11.6829
   371.26         11.7901
   371.40         11.8903
   371.54         11.9802
   371.68         12.0560
   371.82         12.1132
   371.96         12.1482
   372.10         12.1590
   372.24         12.1459
   372.38         12.1108
   372.52         12.0563
   372.66         11.9867
   372.80         11.9100
   372.94         11.8382
   373.08         11.7825
   373.22         11.7500
   373.36         11.7415
   373.50         11.7501
   373.64         11.7651
   373.78         11.7758
   373.92         11.7764
   374.06         11.7649
   374.20         11.7418
   374.34         11.7108
   374.48         11.6792
   374.62         11.6545
   374.76         11.6424
   374.90         11.6492
   375.04         11.6832
   375.18         11.7531
   375.32         11.8669
   375.46         12.0270
   375.60         12.2249
   375.74         12.4400
   375.88         12.6447
   376.02         12.8119
   376.16         12.9219
   376.30         12.9686
   376.44         12.9605
   376.58         12.9190
   376.72         12.8729
   376.86         12.8498
   377.00         12.8704
   377.14         12.9464
   377.28         13.0808
   377.42         13.2694
   377.56         13.5027
   377.70         13.7666
   377.84         14.0418
   377.98         14.3041
   378.12         14.5265
   378.26         14.6819
   378.40         14.7481
   378.54         14.7112
   378.68         14.5680
   378.82         14.3277
   378.96         14.0120
   379.10         13.6528
   379.24         13.2870
   379.38         12.9512
   379.52         12.6765
   379.66         12.4864
   379.80         12.3968
   379.94         12.4148
   380.08         12.5356
   380.22         12.7411
   380.36         13.0044
   380.50         13.2940
   380.64         13.5794
   380.78         13.8322
   380.92         14.0272
   381.06         14.1478
   381.20         14.1890
   381.34         14.1563
   381.48         14.0608
   381.62         13.9163
   381.76         13.7361
   381.90         13.5296
   382.04         13.3006
   382.18         13.0486
   382.32         12.7728
   382.46         12.4741
   382.60         12.1561
   382.74         11.8255
   382.88         11.4942
   383.02         11.1818
   383.16         10.9132
   383.30         10.7132
   383.44         10.6027
   383.58         10.5981
   383.72         10.7094
   383.86         10.9363
   384.00         11.2674
   384.14         11.6853
   384.28         12.1679
   384.42         12.6885
   384.56         13.2164
   384.70         13.7199
   384.84         14.1721
   384.98         14.5557
   385.12         14.8653
   385.26         15.1046
   385.40         15.2826
   385.54         15.4110
   385.68         15.5021
   385.82         15.5664
   385.96         15.6111
   386.10         15.6389
   386.24         15.6504
   386.38         15.6455
   386.52         15.6237
   386.66         15.5847
   386.80         15.5295
   386.94         15.4582
   387.08         15.3705
   387.22         15.2657
   387.36         15.1421
   387.50         14.9958
   387.64         14.8213
   387.78         14.6126
   387.92         14.3677
   388.06         14.0906
   388.20         13.7904
   388.34         13.4807
   388.48         13.1793
   388.62         12.9074
   388.76         12.6883
   388.90         12.5444
   389.04         12.4924
   389.18         12.5383
   389.32         12.6773
   389.46         12.8945
   389.60         13.1682
   389.74         13.4741
   389.88         13.7879
   390.02         14.0879
   390.16         14.3578
   390.30         14.5881
   390.44         14.7774
   390.58         14.9286
   390.72         15.0435
   390.86         15.1223
   391.00         15.1640
   391.14         15.1693
   391.28         15.1387
   391.42         15.0699
   391.56         14.9566
   391.70         14.7884
   391.84         14.5522
   391.98         14.2346
   392.12         13.8265
   392.26         13.3263
   392.40         12.7424
   392.54         12.0941
   392.68         11.4137
   392.82         10.7439
   392.96         10.1319
   393.10         9.6234
   393.24         9.2569
   393.38         9.0605
   393.52         9.0505
   393.66         9.2285
   393.80         9.5814
   393.94         10.0812
   394.08         10.6861
   394.22         11.3469
   394.36         12.0134
   394.50         12.6396
   394.64         13.1895
   394.78         13.6398
   394.92         13.9782
   395.06         14.2007
   395.20         14.3068
   395.34         14.2955
   395.48         14.1611
   395.62         13.8954
   395.76         13.4945
   395.90         12.9675
   396.04         12.3398
   396.18         11.6513
   396.32         10.9523
   396.46         10.2981
   396.60         9.7422
   396.74         9.3327
   396.88         9.1077
   397.02         9.0906
   397.16         9.2854
   397.30         9.6778
   397.44         10.2367
   397.58         10.9176
   397.72         11.6697
   397.86         12.4410
   398.00         13.1835
   398.14         13.8594
   398.28         14.4450
   398.42         14.9307
   398.56         15.3186
   398.70         15.6186
   398.84         15.8456
   398.98         16.0162
   399.12         16.1452
   399.26         16.2427
   399.40         16.3158
   399.54         16.3692
   399.68         16.4077
   399.82         16.4369
   399.96         16.4632
   400.10         16.4922
   400.24         16.5284
   400.38         16.5749
   400.52         16.6335
   400.66         16.7045
   400.80         16.7873
   400.94         16.8799
   401.08         16.9785
   401.22         17.0790
   401.36         17.1780
   401.50         17.2718
   401.64         17.3542
   401.78         17.4170
   401.92         17.4518
   402.06         17.4545
   402.20         17.4271
   402.34         17.3769
   402.48         17.3131
   402.62         17.2465
   402.76         17.1882
   402.90         17.1485
   403.04         17.1349
   403.18         17.1503
   403.32         17.1912
   403.46         17.2495
   403.60         17.3175
   403.74         17.3886
   403.88         17.4580
   404.02         17.5206
   404.16         17.5692
   404.30         17.5957
   404.44         17.5938
   404.58         17.5607
   404.72         17.5000
   404.86         17.4198
   405.00         17.3287
   405.14         17.2315
   405.28         17.1303
   405.42         17.0273
   405.56         16.9253
   405.70         16.8284
   405.84         16.7414
   405.98         16.6693
   406.12         16.6181
   406.26         16.5916
   406.40         16.5856
   406.54         16.5883
   406.68         16.5848
   406.82         16.5651
   406.96         16.5271
   407.10         16.4741
   407.24         16.4117
   407.38         16.3467
   407.52         16.2859
   407.66         16.2360
   407.80         16.2031
   407.94         16.1936
   408.08         16.2112
   408.22         16.2539
   408.36         16.3131
   408.50         16.3736
   408.64         16.4159
   408.78         16.4170
   408.92         16.3521
   409.06         16.2010
   409.20         15.9580
   409.34         15.6355
   409.48         15.2608
   409.62         14.8681
   409.76         14.4917
   409.90         14.1637
   410.04         13.9143
   410.18         13.7694
   410.32         13.7466
   410.46         13.8508
   410.60         14.0730
   410.74         14.3921
   410.88         14.7778
   411.02         15.1953
   411.16         15.6099
   411.30         15.9915
   411.44         16.3164
   411.58         16.5707
   411.72         16.7523
   411.86         16.8689
   412.00         16.9321
   412.14         16.9533
   412.28         16.9433
   412.42         16.9146
   412.56         16.8815
   412.70         16.8582
   412.84         16.8563
   412.98         16.8801
   413.12         16.9260
   413.26         16.9870
   413.40         17.0567
   413.54         17.1301
   413.68         17.2033
   413.82         17.2722
   413.96         17.3328
   414.10         17.3813
   414.24         17.4137
   414.38         17.4275
   414.52         17.4231
   414.66         17.4035
   414.80         17.3740
   414.94         17.3420
   415.08         17.3152
   415.22         17.2991
   415.36         17.2966
   415.50         17.3079
   415.64         17.3311
   415.78         17.3636
   415.92         17.4023
   416.06         17.4404
   416.20         17.4684
   416.34         17.4762
   416.48         17.4555
   416.62         17.4011
   416.76         17.3123
   416.90         17.1943
   417.04         17.0575
   417.18         16.9155
   417.32         16.7827
   417.46         16.6722
   417.60         16.5932
   417.74         16.5509
   417.88         16.5476
   418.02         16.5835
   418.16         16.6557
   418.30         16.7569
   418.44         16.8761
   418.58         16.9982
   418.72         17.1083
   418.86         17.1957
   419.00         17.2539
   419.14         17.2800
   419.28         17.2749
   419.42         17.2429
   419.56         17.1905
   419.70         17.1253
   419.84         17.0554
   419.98         16.9905
   420.12         16.9405
   420.26         16.9131
   420.40         16.9122
   420.54         16.9373
   420.68         16.9835
   420.82         17.0433
   420.96         17.1073
   421.10         17.1648
   421.24         17.2049
   421.38         17.2169
   421.52         17.1921
   421.66         17.1265
   421.80         17.0240
   421.94         16.8956
   422.08         16.7553
   422.22         16.6171
   422.36         16.4929
   422.50         16.3917
   422.64         16.3188
   422.78         16.2767
   422.92         16.2646
   423.06         16.2798
   423.20         16.3202
   423.34         16.3824
   423.48         16.4599
   423.62         16.5418
   423.76         16.6150
   423.90         16.6696
   424.04         16.7018
   424.18         16.7147
   424.32         16.7157
   424.46         16.7132
   424.60         16.7124
   424.74         16.7137
   424.88         16.7138
   425.02         16.7099
   425.16         16.7029
   425.30         16.6974
   425.44         16.7002
   425.58         16.7161
   425.72         16.7468
   425.86         16.7898
   426.00         16.8381
   426.14         16.8826
   426.28         16.9157
   426.42         16.9342
   426.56         16.9402
   426.70         16.9384
   426.84         16.9333
   426.98         16.9282
   427.12         16.9260
   427.26         16.9286
   427.40         16.9354
   427.54         16.9439
   427.68         16.9502
   427.82         16.9491
   427.96         16.9329
   428.10         16.8943
   428.24         16.8287
   428.38         16.7350
   428.52         16.6155
   428.66         16.4741
   428.80         16.3165
   428.94         16.1487
   429.08         15.9752
   429.22         15.7987
   429.36         15.6205
   429.50         15.4402
   429.64         15.2577
   429.78         15.0736
   429.92         14.8917
   430.06         14.7179
   430.20         14.5601
   430.34         14.4281
   430.48         14.3351
   430.62         14.2958
   430.76         14.3233
   430.90         14.4224
   431.04         14.5884
   431.18         14.8075
   431.32         15.0590
   431.46         15.3185
   431.60         15.5633
   431.74         15.7778
   431.88         15.9538
   432.02         16.0873
   432.16         16.1771
   432.30         16.2247
   432.44         16.2333
   432.58         16.2045
   432.72         16.1344
   432.86         16.0131
   433.00         15.8315
   433.14         15.5874
   433.28         15.2887
   433.42         14.9517
   433.56         14.5996
   433.70         14.2591
   433.84         13.9571
   433.98         13.7169
   434.12         13.5572
   434.26         13.4929
   434.40         13.5326
   434.54         13.6746
   434.68         13.9055
   434.82         14.2033
   434.96         14.5410
   435.10         14.8902
   435.24         15.2263
   435.38         15.5328
   435.52         15.8038
   435.66         16.0428
   435.80         16.2570
   435.94         16.4524
   436.08         16.6304
   436.22         16.7864
   436.36         16.9111
   436.50         16.9956
   436.64         17.0364
   436.78         17.0379
   436.92         17.0098
   437.06         16.9618
   437.20         16.8983
   437.34         16.8200
   437.48         16.7281
   437.62         16.6268
   437.76         16.5212
   437.90         16.4159
   438.04         16.3141
   438.18         16.2171
   438.32         16.1256
   438.46         16.0427
   438.60         15.9748
   438.74         15.9286
   438.88         15.9067
   439.02         15.9092
   439.16         15.9357
   439.30         15.9846
   439.44         16.0505
   439.58         16.1247
   439.72         16.1973
   439.86         16.2605
   440.00         16.3120
   440.14         16.3556
   440.28         16.3948
   440.42         16.4297
   440.56         16.4585
   440.70         16.4813
   440.84         16.5009
   440.98         16.5205
   441.12         16.5424
   441.26         16.5673
   441.40         16.5941
   441.54         16.6218
   441.68         16.6517
   441.82         16.6862
   441.96         16.7251
   442.10         16.7658
   442.24         16.8039
   442.38         16.8348
   442.52         16.8548
   442.66         16.8636
   442.80         16.8628
   442.94         16.8528
   443.08         16.8329
   443.22         16.8037
   443.36         16.7681
   443.50         16.7296
   443.64         16.6908
   443.78         16.6551
   443.92         16.6276
   444.06         16.6119
   444.20         16.6076
   444.34         16.6101
   444.48         16.6114
   444.62         16.6027
   444.76         16.5779
   444.90         16.5350
   445.04         16.4761
   445.18         16.4066
   445.32         16.3332
   445.46         16.2602
   445.60         16.1907
   445.74         16.1286
   445.88         16.0797
   446.02         16.0520
   446.16         16.0530
   446.30         16.0868
   446.44         16.1536
   446.58         16.2479
   446.72         16.3590
   446.86         16.4729
   447.00         16.5755
   447.14         16.6567
   447.28         16.7134
   447.42         16.7467
   447.56         16.7593
   447.70         16.7531
   447.84         16.7292
   447.98         16.6894
   448.12         16.6377
   448.26         16.5803
   448.40         16.5232
   448.54         16.4724
   448.68         16.4337
   448.82         16.4100
   448.96         16.4002
   449.10         16.4012
   449.24         16.4107
   449.38         16.4286
   449.52         16.4567
   449.66         16.4984
   449.80         16.5578
   449.94         16.6363
   450.08         16.7305
   450.22         16.8320
   450.36         16.9314
   450.50         17.0209
   450.64         17.0955
   450.78         17.1517
   450.92         17.1866
   451.06         17.1978
   451.20         17.1844
   451.34         17.1471
   451.48         17.0868
   451.62         17.0064
   451.76         16.9108
   451.90         16.8052
   452.04         16.6926
   452.18         16.5735
   452.32         16.4489
   452.46         16.3234
   452.60         16.2049
   452.74         16.1012
   452.88         16.0181
   453.02         15.9616
   453.16         15.9374
   453.30         15.9480
   453.44         15.9921
   453.58         16.0629
   453.72         16.1489
   453.86         16.2368
   454.00         16.3150
   454.14         16.3749
   454.28         16.4106
   454.42         16.4202
   454.56         16.4068
   454.70         16.3773
   454.84         16.3419
   454.98         16.3118
   455.12         16.2953
   455.26         16.2961
   455.40         16.3135
   455.54         16.3451
   455.68         16.3880
   455.82         16.4379
   455.96         16.4884
   456.10         16.5326
   456.24         16.5654
   456.38         16.5849
   456.52         16.5929
   456.66         16.5923
   456.80         16.5838
   456.94         16.5672
