# File HD5702
# Wavelength [nm]    Normalized Amplitude
   349.70         7.1238
   349.84         7.1196
   349.98         7.1317
   350.12         7.1564
   350.26         7.1898
   350.40         7.2279
   350.54         7.2670
   350.68         7.3037
   350.82         7.3337
   350.96         7.3531
   351.10         7.3598
   351.24         7.3531
   351.38         7.3337
   351.52         7.3037
   351.66         7.2670
   351.80         7.2279
   351.94         7.1898
   352.08         7.1564
   352.22         7.1317
   352.36         7.1196
   352.50         7.1238
   352.64         7.1477
   352.78         7.1922
   352.92         7.2563
   353.06         7.3365
   353.20         7.4274
   353.34         7.5225
   353.48         7.6157
   353.62         7.7036
   353.76         7.7838
   353.90         7.8545
   354.04         7.9147
   354.18         7.9626
   354.32         7.9963
   354.46         8.0151
   354.60         8.0190
   354.74         8.0090
   354.88         7.9865
   355.02         7.9535
   355.16         7.9112
   355.30         7.8594
   355.44         7.7964
   355.58         7.7204
   355.72         7.6297
   355.86         7.5243
   356.00         7.4070
   356.14         7.2822
   356.28         7.1545
   356.42         7.0298
   356.56         6.9149
   356.70         6.8162
   356.84         6.7366
   356.98         6.6763
   357.12         6.6333
   357.26         6.6027
   357.40         6.5777
   357.54         6.5525
   357.68         6.5243
   357.82         6.4934
   357.96         6.4637
   358.10         6.4424
   358.24         6.4390
   358.38         6.4625
   358.52         6.5192
   358.66         6.6106
   358.80         6.7340
   358.94         6.8823
   359.08         7.0447
   359.22         7.2074
   359.36         7.3547
   359.50         7.4724
   359.64         7.5512
   359.78         7.5872
   359.92         7.5815
   360.06         7.5407
   360.20         7.4747
   360.34         7.3942
   360.48         7.3079
   360.62         7.2216
   360.76         7.1389
   360.90         7.0632
   361.04         6.9977
   361.18         6.9465
   361.32         6.9156
   361.46         6.9103
   361.60         6.9328
   361.74         6.9811
   361.88         7.0484
   362.02         7.1249
   362.16         7.2006
   362.30         7.2684
   362.44         7.3242
   362.58         7.3669
   362.72         7.3989
   362.86         7.4240
   363.00         7.4457
   363.14         7.4665
   363.28         7.4880
   363.42         7.5114
   363.56         7.5375
   363.70         7.5661
   363.84         7.5956
   363.98         7.6235
   364.12         7.6456
   364.26         7.6577
   364.40         7.6578
   364.54         7.6485
   364.68         7.6374
   364.82         7.6358
   364.96         7.6541
   365.10         7.6971
   365.24         7.7643
   365.38         7.8513
   365.52         7.9495
   365.66         8.0473
   365.80         8.1332
   365.94         8.1990
   366.08         8.2419
   366.22         8.2638
   366.36         8.2688
   366.50         8.2600
   366.64         8.2396
   366.78         8.2099
   366.92         8.1740
   367.06         8.1356
   367.20         8.0983
   367.34         8.0643
   367.48         8.0328
   367.62         8.0014
   367.76         7.9687
   367.90         7.9366
   368.04         7.9093
   368.18         7.8909
   368.32         7.8847
   368.46         7.8926
   368.60         7.9162
   368.74         7.9561
   368.88         8.0103
   369.02         8.0734
   369.16         8.1388
   369.30         8.1994
   369.44         8.2493
   369.58         8.2837
   369.72         8.2988
   369.86         8.2933
   370.00         8.2697
   370.14         8.2365
   370.28         8.2063
   370.42         8.1917
   370.56         8.1997
   370.70         8.2299
   370.84         8.2749
   370.98         8.3248
   371.12         8.3704
   371.26         8.4054
   371.40         8.4260
   371.54         8.4296
   371.68         8.4154
   371.82         8.3836
   371.96         8.3360
   372.10         8.2747
   372.24         8.2012
   372.38         8.1165
   372.52         8.0240
   372.66         7.9307
   372.80         7.8449
   372.94         7.7729
   373.08         7.7177
   373.22         7.6787
   373.36         7.6523
   373.50         7.6343
   373.64         7.6207
   373.78         7.6078
   373.92         7.5934
   374.06         7.5776
   374.20         7.5644
   374.34         7.5593
   374.48         7.5668
   374.62         7.5883
   374.76         7.6232
   374.90         7.6723
   375.04         7.7392
   375.18         7.8281
   375.32         7.9388
   375.46         8.0647
   375.60         8.1934
   375.74         8.3080
   375.88         8.3920
   376.02         8.4348
   376.16         8.4360
   376.30         8.4059
   376.44         8.3634
   376.58         8.3307
   376.72         8.3277
   376.86         8.3680
   377.00         8.4575
   377.14         8.5952
   377.28         8.7753
   377.42         8.9876
   377.56         9.2187
   377.70         9.4519
   377.84         9.6684
   377.98         9.8507
   378.12         9.9841
   378.26         10.0575
   378.40         10.0638
   378.54         10.0008
   378.68         9.8734
   378.82         9.6945
   378.96         9.4835
   379.10         9.2629
   379.24         9.0560
   379.38         8.8843
   379.52         8.7669
   379.66         8.7184
   379.80         8.7469
   379.94         8.8513
   380.08         9.0214
   380.22         9.2401
   380.36         9.4870
   380.50         9.7417
   380.64         9.9839
   380.78         10.1928
   380.92         10.3493
   381.06         10.4409
   381.20         10.4633
   381.34         10.4197
   381.48         10.3182
   381.62         10.1689
   381.76         9.9817
   381.90         9.7651
   382.04         9.5256
   382.18         9.2667
   382.32         8.9908
   382.46         8.7004
   382.60         8.3995
   382.74         8.0947
   382.88         7.7983
   383.02         7.5290
   383.16         7.3084
   383.30         7.1556
   383.44         7.0853
   383.58         7.1088
   383.72         7.2320
   383.86         7.4517
   384.00         7.7562
   384.14         8.1282
   384.28         8.5461
   384.42         8.9843
   384.56         9.4147
   384.70         9.8097
   384.84         10.1466
   384.98         10.4126
   385.12         10.6069
   385.26         10.7376
   385.40         10.8180
   385.54         10.8633
   385.68         10.8892
   385.82         10.9083
   385.96         10.9278
   386.10         10.9498
   386.24         10.9737
   386.38         10.9962
   386.52         11.0122
   386.66         11.0149
   386.80         10.9978
   386.94         10.9559
   387.08         10.8862
   387.22         10.7863
   387.36         10.6548
   387.50         10.4915
   387.64         10.2975
   387.78         10.0754
   387.92         9.8302
   388.06         9.5706
   388.20         9.3086
   388.34         9.0593
   388.48         8.8392
   388.62         8.6641
   388.76         8.5473
   388.90         8.4980
   389.04         8.5191
   389.18         8.6060
   389.32         8.7487
   389.46         8.9347
   389.60         9.1497
   389.74         9.3776
   389.88         9.6021
   390.02         9.8106
   390.16         9.9958
   390.30         10.1563
   390.44         10.2951
   390.58         10.4166
   390.72         10.5228
   390.86         10.6121
   391.00         10.6817
   391.14         10.7278
   391.28         10.7461
   391.42         10.7302
   391.56         10.6709
   391.70         10.5565
   391.84         10.3743
   391.98         10.1135
   392.12         9.7678
   392.26         9.3373
   392.40         8.8307
   392.54         8.2683
   392.68         7.6813
   392.82         7.1088
   392.96         6.5926
   393.10         6.1705
   393.24         5.8735
   393.38         5.7246
   393.52         5.7361
   393.66         5.9072
   393.80         6.2226
   393.94         6.6536
   394.08         7.1613
   394.22         7.7018
   394.36         8.2326
   394.50         8.7191
   394.64         9.1378
   394.78         9.4748
   394.92         9.7241
   395.06         9.8850
   395.20         9.9581
   395.34         9.9425
   395.48         9.8340
   395.62         9.6273
   395.76         9.3221
   395.90         8.9285
   396.04         8.4690
   396.18         7.9752
   396.32         7.4852
   396.46         7.0399
   396.60         6.6811
   396.74         6.4453
   396.88         6.3596
   397.02         6.4373
   397.16         6.6772
   397.30         7.0628
   397.44         7.5643
   397.58         8.1426
   397.72         8.7550
   397.86         9.3608
   398.00         9.9263
   398.14         10.4278
   398.28         10.8530
   398.42         11.2002
   398.56         11.4756
   398.70         11.6900
   398.84         11.8553
   398.98         11.9829
   399.12         12.0838
   399.26         12.1654
   399.40         12.2305
   399.54         12.2792
   399.68         12.3127
   399.82         12.3345
   399.96         12.3497
   400.10         12.3634
   400.24         12.3801
   400.38         12.4026
   400.52         12.4333
   400.66         12.4730
   400.80         12.5205
   400.94         12.5739
   401.08         12.6307
   401.22         12.6891
   401.36         12.7483
   401.50         12.8084
   401.64         12.8685
   401.78         12.9243
   401.92         12.9686
   402.06         12.9945
   402.20         12.9989
   402.34         12.9829
   402.48         12.9498
   402.62         12.9049
   402.76         12.8542
   402.90         12.8031
   403.04         12.7555
   403.18         12.7130
   403.32         12.6756
   403.46         12.6426
   403.60         12.6148
   403.74         12.5943
   403.88         12.5835
   404.02         12.5832
   404.16         12.5916
   404.30         12.6034
   404.44         12.6123
   404.58         12.6148
   404.72         12.6111
   404.86         12.6032
   405.00         12.5918
   405.14         12.5748
   405.28         12.5476
   405.42         12.5055
   405.56         12.4464
   405.70         12.3723
   405.84         12.2882
   405.98         12.2014
   406.12         12.1206
   406.26         12.0530
   406.40         12.0005
   406.54         11.9602
   406.68         11.9281
   406.82         11.9021
   406.96         11.8823
   407.10         11.8693
   407.24         11.8637
   407.38         11.8666
   407.52         11.8793
   407.66         11.9033
   407.80         11.9407
   407.94         11.9933
   408.08         12.0611
   408.22         12.1402
   408.36         12.2217
   408.50         12.2922
   408.64         12.3360
   408.78         12.3357
   408.92         12.2746
   409.06         12.1421
   409.20         11.9394
   409.34         11.6800
   409.48         11.3858
   409.62         11.0818
   409.76         10.7947
   409.90         10.5519
   410.04         10.3786
   410.18         10.2936
   410.32         10.3066
   410.46         10.4164
   410.60         10.6111
   410.74         10.8704
   410.88         11.1685
   411.02         11.4773
   411.16         11.7701
   411.30         12.0255
   411.44         12.2301
   411.58         12.3811
   411.72         12.4844
   411.86         12.5507
   412.00         12.5896
   412.14         12.6087
   412.28         12.6143
   412.42         12.6142
   412.56         12.6165
   412.70         12.6288
   412.84         12.6558
   412.98         12.6978
   413.12         12.7504
   413.26         12.8083
   413.40         12.8672
   413.54         12.9237
   413.68         12.9747
   413.82         13.0182
   413.96         13.0526
   414.10         13.0755
   414.24         13.0841
   414.38         13.0760
   414.52         13.0504
   414.66         13.0100
   414.80         12.9612
   414.94         12.9130
   415.08         12.8752
   415.22         12.8555
   415.36         12.8576
   415.50         12.8802
   415.64         12.9196
   415.78         12.9710
   415.92         13.0275
   416.06         13.0790
   416.20         13.1134
   416.34         13.1210
   416.48         13.0964
   416.62         13.0387
   416.76         12.9512
   416.90         12.8422
   417.04         12.7226
   417.18         12.6048
   417.32         12.5011
   417.46         12.4210
   417.60         12.3706
   417.74         12.3525
   417.88         12.3653
   418.02         12.4040
   418.16         12.4619
   418.30         12.5314
   418.44         12.6030
   418.58         12.6659
   418.72         12.7123
   418.86         12.7395
   419.00         12.7484
   419.14         12.7409
   419.28         12.7192
   419.42         12.6874
   419.56         12.6501
   419.70         12.6120
   419.84         12.5785
   419.98         12.5554
   420.12         12.5468
   420.26         12.5548
   420.40         12.5790
   420.54         12.6172
   420.68         12.6657
   420.82         12.7200
   420.96         12.7748
   421.10         12.8234
   421.24         12.8577
   421.38         12.8692
   421.52         12.8504
   421.66         12.7988
   421.80         12.7193
   421.94         12.6220
   422.08         12.5181
   422.22         12.4167
   422.36         12.3252
   422.50         12.2491
   422.64         12.1919
   422.78         12.1555
   422.92         12.1402
   423.06         12.1457
   423.20         12.1713
   423.34         12.2138
   423.48         12.2660
   423.62         12.3173
   423.76         12.3573
   423.90         12.3791
   424.04         12.3825
   424.18         12.3740
   424.32         12.3637
   424.46         12.3594
   424.60         12.3634
   424.74         12.3732
   424.88         12.3845
   425.02         12.3951
   425.16         12.4059
   425.30         12.4201
   425.44         12.4400
   425.58         12.4660
   425.72         12.4956
   425.86         12.5234
   426.00         12.5420
   426.14         12.5449
   426.28         12.5288
   426.42         12.4952
   426.56         12.4495
   426.70         12.3989
   426.84         12.3499
   426.98         12.3066
   427.12         12.2719
   427.26         12.2476
   427.40         12.2343
   427.54         12.2315
   427.68         12.2372
   427.82         12.2467
   427.96         12.2524
   428.10         12.2471
   428.24         12.2257
   428.38         12.1859
   428.52         12.1270
   428.66         12.0497
   428.80         11.9550
   428.94         11.8446
   429.08         11.7217
   429.22         11.5902
   429.36         11.4525
   429.50         11.3097
   429.64         11.1627
   429.78         11.0130
   429.92         10.8651
   430.06         10.7265
   430.20         10.6073
   430.34         10.5193
   430.48         10.4756
   430.62         10.4878
   430.76         10.5619
   430.90         10.6960
   431.04         10.8802
   431.18         11.0982
   431.32         11.3294
   431.46         11.5539
   431.60         11.7572
   431.74         11.9308
   431.88         12.0695
   432.02         12.1697
   432.16         12.2303
   432.30         12.2531
   432.44         12.2416
   432.58         12.1980
   432.72         12.1204
   432.86         12.0035
   433.00         11.8428
   433.14         11.6390
   433.28         11.3989
   433.42         11.1362
   433.56         10.8698
   433.70         10.6213
   433.84         10.4109
   433.98         10.2564
   434.12         10.1727
   434.26         10.1703
   434.40         10.2520
   434.54         10.4115
   434.68         10.6356
   434.82         10.9053
   434.96         11.1990
   435.10         11.4956
   435.24         11.7781
   435.38         12.0349
   435.52         12.2616
   435.66         12.4603
   435.80         12.6363
   435.94         12.7943
   436.08         12.9349
   436.22         13.0545
   436.36         13.1472
   436.50         13.2089
   436.64         13.2396
   436.78         13.2432
   436.92         13.2250
   437.06         13.1886
   437.20         13.1340
   437.34         13.0602
   437.48         12.9694
   437.62         12.8682
   437.76         12.7645
   437.90         12.6652
   438.04         12.5755
   438.18         12.5003
   438.32         12.4441
   438.46         12.4119
   438.60         12.4070
   438.74         12.4292
   438.88         12.4747
   439.02         12.5379
   439.16         12.6121
   439.30         12.6893
   439.44         12.7601
   439.58         12.8161
   439.72         12.8516
   439.86         12.8663
   440.00         12.8673
   440.14         12.8643
   440.28         12.8640
   440.42         12.8699
   440.56         12.8838
   440.70         12.9081
   440.84         12.9451
   440.98         12.9946
   441.12         13.0536
   441.26         13.1171
   441.40         13.1795
   441.54         13.2369
   441.68         13.2882
   441.82         13.3325
   441.96         13.3683
   442.10         13.3930
   442.24         13.4048
   442.38         13.4025
   442.52         13.3871
   442.66         13.3609
   442.80         13.3263
   442.94         13.2849
   443.08         13.2383
   443.22         13.1898
   443.36         13.1436
   443.50         13.1027
   443.64         13.0692
   443.78         13.0454
   443.92         13.0332
   444.06         13.0320
   444.20         13.0373
   444.34         13.0415
   444.48         13.0371
   444.62         13.0191
   444.76         12.9859
   444.90         12.9390
   445.04         12.8820
   445.18         12.8209
   445.32         12.7619
   445.46         12.7098
   445.60         12.6677
   445.74         12.6398
   445.88         12.6315
   446.02         12.6479
   446.16         12.6918
   446.30         12.7632
   446.44         12.8587
   446.58         12.9715
   446.72         13.0918
   446.86         13.2079
   447.00         13.3088
   447.14         13.3880
   447.28         13.4433
   447.42         13.4766
   447.56         13.4913
   447.70         13.4907
   447.84         13.4781
   447.98         13.4574
   448.12         13.4332
   448.26         13.4110
   448.40         13.3960
   448.54         13.3924
   448.68         13.4018
   448.82         13.4228
   448.96         13.4523
   449.10         13.4882
   449.24         13.5288
   449.38         13.5731
   449.52         13.6203
   449.66         13.6703
   449.80         13.7242
   449.94         13.7818
   450.08         13.8402
   450.22         13.8940
   450.36         13.9371
   450.50         13.9652
   450.64         13.9760
   450.78         13.9687
   450.92         13.9431
   451.06         13.8997
   451.20         13.8402
   451.34         13.7672
   451.48         13.6835
   451.62         13.5920
   451.76         13.4958
   451.90         13.3966
   452.04         13.2945
   452.18         13.1898
   452.32         13.0855
   452.46         12.9875
   452.60         12.9033
   452.74         12.8385
   452.88         12.7968
   453.02         12.7797
   453.16         12.7873
   453.30         12.8175
   453.44         12.8653
   453.58         12.9224
   453.72         12.9793
   453.86         13.0272
   454.00         13.0581
   454.14         13.0666
   454.28         13.0511
   454.42         13.0148
   454.56         12.9644
   454.70         12.9093
   454.84         12.8607
   454.98         12.8286
   455.12         12.8187
   455.26         12.8314
   455.40         12.8636
   455.54         12.9111
   455.68         12.9701
   455.82         13.0358
   455.96         13.1022
   456.10         13.1643
   456.24         13.2195
   456.38         13.2680
   456.52         13.3108
   456.66         13.3486
   456.80         13.3811
   456.94         13.4075
   457.08         13.4263
   457.22         13.4351
   457.36         13.4319
   457.50         13.4152
   457.64         13.3848
   457.78         13.3416
   457.92         13.2896
   458.06         13.2347
   458.20         13.1830
   458.34         13.1388
   458.48         13.1046
