# File HD6111
# Wavelength [nm]    Normalized Amplitude
   349.70         6.2765
   349.84         6.2623
   349.98         6.2639
   350.12         6.2758
   350.26         6.2934
   350.40         6.3134
   350.54         6.3342
   350.68         6.3550
   350.82         6.3734
   350.96         6.3860
   351.10         6.3905
   351.24         6.3860
   351.38         6.3734
   351.52         6.3550
   351.66         6.3342
   351.80         6.3134
   351.94         6.2934
   352.08         6.2758
   352.22         6.2639
   352.36         6.2623
   352.50         6.2765
   352.64         6.3115
   352.78         6.3703
   352.92         6.4526
   353.06         6.5541
   353.20         6.6674
   353.34         6.7832
   353.48         6.8929
   353.62         6.9917
   353.76         7.0776
   353.90         7.1495
   354.04         7.2073
   354.18         7.2506
   354.32         7.2792
   354.46         7.2938
   354.60         7.2968
   354.74         7.2901
   354.88         7.2751
   355.02         7.2524
   355.16         7.2212
   355.30         7.1780
   355.44         7.1179
   355.58         7.0372
   355.72         6.9347
   355.86         6.8130
   356.00         6.6777
   356.14         6.5372
   356.28         6.4003
   356.42         6.2752
   356.56         6.1687
   356.70         6.0853
   356.84         6.0270
   356.98         5.9936
   357.12         5.9820
   357.26         5.9851
   357.40         5.9925
   357.54         5.9944
   357.68         5.9834
   357.82         5.9573
   357.96         5.9203
   358.10         5.8811
   358.24         5.8503
   358.38         5.8389
   358.52         5.8575
   358.66         5.9135
   358.80         6.0082
   358.94         6.1360
   359.08         6.2852
   359.22         6.4401
   359.36         6.5842
   359.50         6.7019
   359.64         6.7811
   359.78         6.8139
   359.92         6.7984
   360.06         6.7399
   360.20         6.6503
   360.34         6.5456
   360.48         6.4415
   360.62         6.3489
   360.76         6.2726
   360.90         6.2151
   361.04         6.1793
   361.18         6.1683
   361.32         6.1834
   361.46         6.2247
   361.60         6.2904
   361.74         6.3765
   361.88         6.4757
   362.02         6.5780
   362.16         6.6722
   362.30         6.7486
   362.44         6.8018
   362.58         6.8324
   362.72         6.8443
   362.86         6.8429
   363.00         6.8329
   363.14         6.8175
   363.28         6.7987
   363.42         6.7794
   363.56         6.7639
   363.70         6.7561
   363.84         6.7571
   363.98         6.7658
   364.12         6.7798
   364.26         6.7963
   364.40         6.8129
   364.54         6.8300
   364.68         6.8529
   364.82         6.8916
   364.96         6.9565
   365.10         7.0540
   365.24         7.1832
   365.38         7.3364
   365.52         7.5004
   365.66         7.6594
   365.80         7.7976
   365.94         7.9046
   366.08         7.9772
   366.22         8.0159
   366.36         8.0235
   366.50         8.0037
   366.64         7.9610
   366.78         7.9004
   366.92         7.8262
   367.06         7.7434
   367.20         7.6571
   367.34         7.5716
   367.48         7.4886
   367.62         7.4072
   367.76         7.3278
   367.90         7.2539
   368.04         7.1924
   368.18         7.1494
   368.32         7.1287
   368.46         7.1331
   368.60         7.1657
   368.74         7.2269
   368.88         7.3127
   369.02         7.4169
   369.16         7.5304
   369.30         7.6413
   369.44         7.7376
   369.58         7.8091
   369.72         7.8487
   369.86         7.8531
   370.00         7.8245
   370.14         7.7724
   370.28         7.7122
   370.42         7.6608
   370.56         7.6313
   370.70         7.6286
   370.84         7.6498
   370.98         7.6870
   371.12         7.7318
   371.26         7.7766
   371.40         7.8142
   371.54         7.8378
   371.68         7.8426
   371.82         7.8255
   371.96         7.7870
   372.10         7.7300
   372.24         7.6565
   372.38         7.5672
   372.52         7.4649
   372.66         7.3561
   372.80         7.2494
   372.94         7.1531
   373.08         7.0717
   373.22         7.0059
   373.36         6.9535
   373.50         6.9120
   373.64         6.8794
   373.78         6.8545
   373.92         6.8373
   374.06         6.8298
   374.20         6.8360
   374.34         6.8603
   374.48         6.9048
   374.62         6.9672
   374.76         7.0420
   374.90         7.1244
   375.04         7.2144
   375.18         7.3154
   375.32         7.4294
   375.46         7.5537
   375.60         7.6803
   375.74         7.7975
   375.88         7.8934
   376.02         7.9602
   376.16         7.9968
   376.30         8.0100
   376.44         8.0133
   376.58         8.0237
   376.72         8.0567
   376.86         8.1219
   377.00         8.2214
   377.14         8.3515
   377.28         8.5052
   377.42         8.6731
   377.56         8.8446
   377.70         9.0078
   377.84         9.1504
   377.98         9.2603
   378.12         9.3273
   378.26         9.3440
   378.40         9.3063
   378.54         9.2137
   378.68         9.0704
   378.82         8.8879
   378.96         8.6842
   379.10         8.4810
   379.24         8.3000
   379.38         8.1605
   379.52         8.0770
   379.66         8.0581
   379.80         8.1071
   379.94         8.2208
   380.08         8.3893
   380.22         8.5962
   380.36         8.8213
   380.50         9.0432
   380.64         9.2412
   380.78         9.3964
   380.92         9.4930
   381.06         9.5218
   381.20         9.4820
   381.34         9.3798
   381.48         9.2260
   381.62         9.0323
   381.76         8.8097
   381.90         8.5676
   382.04         8.3126
   382.18         8.0494
   382.32         7.7820
   382.46         7.5155
   382.60         7.2546
   382.74         7.0032
   382.88         6.7673
   383.02         6.5581
   383.16         6.3911
   383.30         6.2817
   383.44         6.2417
   383.58         6.2789
   383.72         6.3957
   383.86         6.5869
   384.00         6.8408
   384.14         7.1419
   384.28         7.4723
   384.42         7.8115
   384.56         8.1364
   384.70         8.4242
   384.84         8.6576
   384.98         8.8296
   385.12         8.9432
   385.26         9.0079
   385.40         9.0363
   385.54         9.0422
   385.68         9.0378
   385.82         9.0316
   385.96         9.0269
   386.10         9.0231
   386.24         9.0194
   386.38         9.0155
   386.52         9.0103
   386.66         9.0018
   386.80         8.9867
   386.94         8.9609
   387.08         8.9202
   387.22         8.8625
   387.36         8.7883
   387.50         8.6997
   387.64         8.5980
   387.78         8.4829
   387.92         8.3543
   388.06         8.2162
   388.20         8.0773
   388.34         7.9499
   388.48         7.8470
   388.62         7.7817
   388.76         7.7662
   388.90         7.8085
   389.04         7.9087
   389.18         8.0577
   389.32         8.2411
   389.46         8.4422
   389.60         8.6447
   389.74         8.8352
   389.88         9.0048
   390.02         9.1483
   390.16         9.2651
   390.30         9.3590
   390.44         9.4371
   390.58         9.5074
   390.72         9.5753
   390.86         9.6409
   391.00         9.6998
   391.14         9.7455
   391.28         9.7702
   391.42         9.7640
   391.56         9.7144
   391.70         9.6076
   391.84         9.4310
   391.98         9.1753
   392.12         8.8374
   392.26         8.4210
   392.40         7.9386
   392.54         7.4116
   392.68         6.8691
   392.82         6.3456
   392.96         5.8761
   393.10         5.4924
   393.24         5.2207
   393.38         5.0812
   393.52         5.0851
   393.66         5.2318
   393.80         5.5084
   393.94         5.8918
   394.08         6.3505
   394.22         6.8482
   394.36         7.3499
   394.50         7.8255
   394.64         8.2517
   394.78         8.6133
   394.92         8.9006
   395.06         9.1071
   395.20         9.2277
   395.34         9.2565
   395.48         9.1857
   395.62         9.0085
   395.76         8.7242
   395.90         8.3440
   396.04         7.8910
   396.18         7.3969
   396.32         6.8996
   396.46         6.4420
   396.60         6.0681
   396.74         5.8168
   396.88         5.7165
   397.02         5.7816
   397.16         6.0114
   397.30         6.3906
   397.44         6.8910
   397.58         7.4740
   397.72         8.0974
   397.86         8.7209
   398.00         9.3105
   398.14         9.8394
   398.28         10.2913
   398.42         10.6600
   398.56         10.9485
   398.70         11.1673
   398.84         11.3304
   398.98         11.4533
   399.12         11.5500
   399.26         11.6297
   399.40         11.6956
   399.54         11.7483
   399.68         11.7897
   399.82         11.8239
   399.96         11.8554
   400.10         11.8884
   400.24         11.9256
   400.38         11.9688
   400.52         12.0178
   400.66         12.0711
   400.80         12.1260
   400.94         12.1809
   401.08         12.2358
   401.22         12.2917
   401.36         12.3502
   401.50         12.4114
   401.64         12.4727
   401.78         12.5281
   401.92         12.5695
   402.06         12.5904
   402.20         12.5887
   402.34         12.5672
   402.48         12.5314
   402.62         12.4876
   402.76         12.4420
   402.90         12.3988
   403.04         12.3604
   403.18         12.3269
   403.32         12.2965
   403.46         12.2675
   403.60         12.2398
   403.74         12.2148
   403.88         12.1941
   404.02         12.1778
   404.16         12.1638
   404.30         12.1475
   404.44         12.1242
   404.58         12.0917
   404.72         12.0526
   404.86         12.0122
   405.00         11.9749
   405.14         11.9408
   405.28         11.9066
   405.42         11.8682
   405.56         11.8221
   405.70         11.7683
   405.84         11.7098
   405.98         11.6516
   406.12         11.6008
   406.26         11.5631
   406.40         11.5395
   406.54         11.5258
   406.68         11.5160
   406.82         11.5075
   406.96         11.5017
   407.10         11.5003
   407.24         11.5056
   407.38         11.5200
   407.52         11.5460
   407.66         11.5859
   407.80         11.6419
   407.94         11.7150
   408.08         11.8035
   408.22         11.9020
   408.36         12.0017
   408.50         12.0899
   408.64         12.1517
   408.78         12.1718
   408.92         12.1357
   409.06         12.0339
   409.20         11.8666
   409.34         11.6477
   409.48         11.4001
   409.62         11.1493
   409.76         10.9197
   409.90         10.7346
   410.04         10.6138
   410.18         10.5708
   410.32         10.6107
   410.46         10.7297
   410.60         10.9155
   410.74         11.1492
   410.88         11.4075
   411.02         11.6664
   411.16         11.9046
   411.30         12.1063
   411.44         12.2610
   411.58         12.3657
   411.72         12.4255
   411.86         12.4501
   412.00         12.4490
   412.14         12.4284
   412.28         12.3924
   412.42         12.3473
   412.56         12.3016
   412.70         12.2650
   412.84         12.2463
   412.98         12.2501
   413.12         12.2751
   413.26         12.3164
   413.40         12.3691
   413.54         12.4296
   413.68         12.4945
   413.82         12.5594
   413.96         12.6186
   414.10         12.6661
   414.24         12.6962
   414.38         12.7051
   414.52         12.6921
   414.66         12.6599
   414.80         12.6162
   414.94         12.5723
   415.08         12.5407
   415.22         12.5310
   415.36         12.5475
   415.50         12.5882
   415.64         12.6471
   415.78         12.7172
   415.92         12.7904
   416.06         12.8564
   416.20         12.9030
   416.34         12.9189
   416.48         12.8975
   416.62         12.8368
   416.76         12.7400
   416.90         12.6154
   417.04         12.4755
   417.18         12.3349
   417.32         12.2079
   417.46         12.1062
   417.60         12.0374
   417.74         12.0046
   417.88         12.0062
   418.02         12.0373
   418.16         12.0916
   418.30         12.1611
   418.44         12.2351
   418.58         12.3013
   418.72         12.3494
   418.86         12.3742
   419.00         12.3749
   419.14         12.3535
   419.28         12.3134
   419.42         12.2601
   419.56         12.2003
   419.70         12.1406
   419.84         12.0884
   419.98         12.0516
   420.12         12.0365
   420.26         12.0472
   420.40         12.0839
   420.54         12.1437
   420.68         12.2205
   420.82         12.3062
   420.96         12.3914
   421.10         12.4662
   421.24         12.5211
   421.38         12.5473
   421.52         12.5377
   421.66         12.4900
   421.80         12.4098
   421.94         12.3081
   422.08         12.1971
   422.22         12.0873
   422.36         11.9868
   422.50         11.9018
   422.64         11.8361
   422.78         11.7916
   422.92         11.7687
   423.06         11.7671
   423.20         11.7864
   423.34         11.8247
   423.48         11.8761
   423.62         11.9311
   423.76         11.9790
   423.90         12.0118
   424.04         12.0277
   424.18         12.0316
   424.32         12.0327
   424.46         12.0393
   424.60         12.0538
   424.74         12.0727
   424.88         12.0900
   425.02         12.1019
   425.16         12.1090
   425.30         12.1154
   425.44         12.1257
   425.58         12.1434
   425.72         12.1675
   425.86         12.1922
   426.00         12.2088
   426.14         12.2087
   426.28         12.1882
   426.42         12.1498
   426.56         12.1008
   426.70         12.0497
   426.84         12.0033
   426.98         11.9658
   427.12         11.9389
   427.26         11.9223
   427.40         11.9137
   427.54         11.9111
   427.68         11.9123
   427.82         11.9133
   427.96         11.9076
   428.10         11.8888
   428.24         11.8524
   428.38         11.7954
   428.52         11.7161
   428.66         11.6153
   428.80         11.4955
   428.94         11.3599
   429.08         11.2118
   429.22         11.0534
   429.36         10.8855
   429.50         10.7084
   429.64         10.5232
   429.78         10.3333
   429.92         10.1452
   430.06         9.9686
   430.20         9.8167
   430.34         9.7058
   430.48         9.6532
   430.62         9.6746
   430.76         9.7798
   430.90         9.9674
   431.04         10.2250
   431.18         10.5302
   431.32         10.8554
   431.46         11.1731
   431.60         11.4613
   431.74         11.7056
   431.88         11.8974
   432.02         12.0334
   432.16         12.1159
   432.30         12.1523
   432.44         12.1516
   432.58         12.1210
   432.72         12.0631
   432.86         11.9767
   433.00         11.8596
   433.14         11.7118
   433.28         11.5368
   433.42         11.3416
   433.56         11.1374
   433.70         10.9386
   433.84         10.7608
   433.98         10.6197
   434.12         10.5307
   434.26         10.5070
   434.40         10.5555
   434.54         10.6746
   434.68         10.8556
   434.82         11.0841
   434.96         11.3430
   435.10         11.6154
   435.24         11.8873
   435.38         12.1489
   435.52         12.3955
   435.66         12.6258
   435.80         12.8398
   435.94         13.0360
   436.08         13.2100
   436.22         13.3543
   436.36         13.4602
   436.50         13.5216
   436.64         13.5380
   436.78         13.5139
   436.92         13.4564
   437.06         13.3710
   437.20         13.2598
   437.34         13.1247
   437.48         12.9710
   437.62         12.8080
   437.76         12.6447
   437.90         12.4886
   438.04         12.3455
   438.18         12.2211
   438.32         12.1223
   438.46         12.0572
   438.60         12.0332
   438.74         12.0525
   438.88         12.1116
   439.02         12.2038
   439.16         12.3191
   439.30         12.4445
   439.44         12.5651
   439.58         12.6679
   439.72         12.7437
   439.86         12.7897
   440.00         12.8120
   440.14         12.8207
   440.28         12.8229
   440.42         12.8227
   440.56         12.8241
   440.70         12.8329
   440.84         12.8548
   440.98         12.8928
   441.12         12.9459
   441.26         13.0095
   441.40         13.0769
   441.54         13.1424
   441.68         13.2024
   441.82         13.2540
   441.96         13.2957
   442.10         13.3271
   442.24         13.3478
   442.38         13.3573
   442.52         13.3567
   442.66         13.3489
   442.80         13.3357
   442.94         13.3179
   443.08         13.2966
   443.22         13.2744
   443.36         13.2539
   443.50         13.2363
   443.64         13.2224
   443.78         13.2146
   443.92         13.2153
   444.06         13.2245
   444.20         13.2392
   444.34         13.2546
   444.48         13.2648
   444.62         13.2634
   444.76         13.2461
   444.90         13.2111
   445.04         13.1600
   445.18         13.0982
   445.32         13.0318
   445.46         12.9660
   445.60         12.9054
   445.74         12.8556
   445.88         12.8228
   446.02         12.8130
   446.16         12.8306
   446.30         12.8780
   446.44         12.9546
   446.58         13.0558
   446.72         13.1725
   446.86         13.2927
   447.00         13.4040
   447.14         13.4972
   447.28         13.5687
   447.42         13.6204
   447.56         13.6557
   447.70         13.6758
   447.84         13.6819
   447.98         13.6759
   448.12         13.6611
   448.26         13.6414
   448.40         13.6211
   448.54         13.6051
   448.68         13.5988
   448.82         13.6064
   448.96         13.6299
   449.10         13.6700
   449.24         13.7257
   449.38         13.7957
   449.52         13.8788
   449.66         13.9738
   449.80         14.0790
   449.94         14.1906
   450.08         14.3010
   450.22         14.3998
   450.36         14.4780
   450.50         14.5299
   450.64         14.5525
   450.78         14.5453
   450.92         14.5091
   451.06         14.4468
   451.20         14.3630
   451.34         14.2619
   451.48         14.1463
   451.62         14.0183
   451.76         13.8805
   451.90         13.7355
   452.04         13.5861
   452.18         13.4348
   452.32         13.2856
   452.46         13.1464
   452.60         13.0274
   452.74         12.9371
   452.88         12.8813
   453.02         12.8631
   453.16         12.8826
   453.30         12.9353
   453.44         13.0126
   453.58         13.1021
   453.72         13.1891
   453.86         13.2602
   454.00         13.3060
   454.14         13.3215
   454.28         13.3072
   454.42         13.2689
   454.56         13.2160
   454.70         13.1610
   454.84         13.1169
   454.98         13.0950
   455.12         13.1025
   455.26         13.1408
   455.40         13.2059
   455.54         13.2915
   455.68         13.3913
   455.82         13.4971
   455.96         13.5997
   456.10         13.6919
   456.24         13.7702
   456.38         13.8343
   456.52         13.8858
   456.66         13.9265
   456.80         13.9565
   456.94         13.9746
   457.08         13.9795
   457.22         13.9701
   457.36         13.9461
   457.50         13.9079
   457.64         13.8570
   457.78         13.7967
   457.92         13.7318
   458.06         13.6678
   458.20         13.6097
   458.34         13.5609
   458.48         13.5227
   458.62         13.4959
   458.76         13.4812
