# File HD64191
# Wavelength [nm]    Normalized Amplitude
   349.70         5.3702
   349.84         5.3860
   349.98         5.4116
   350.12         5.4427
   350.26         5.4765
   350.40         5.5108
   350.54         5.5434
   350.68         5.5716
   350.82         5.5926
   350.96         5.6049
   351.10         5.6088
   351.24         5.6049
   351.38         5.5926
   351.52         5.5716
   351.66         5.5434
   351.80         5.5108
   351.94         5.4765
   352.08         5.4427
   352.22         5.4116
   352.36         5.3860
   352.50         5.3702
   352.64         5.3682
   352.78         5.3827
   352.92         5.4148
   353.06         5.4630
   353.20         5.5234
   353.34         5.5904
   353.48         5.6594
   353.62         5.7265
   353.76         5.7887
   353.90         5.8424
   354.04         5.8843
   354.18         5.9120
   354.32         5.9257
   354.46         5.9276
   354.60         5.9206
   354.74         5.9079
   354.88         5.8922
   355.02         5.8751
   355.16         5.8570
   355.30         5.8372
   355.44         5.8142
   355.58         5.7860
   355.72         5.7511
   355.86         5.7081
   356.00         5.6565
   356.14         5.5970
   356.28         5.5319
   356.42         5.4649
   356.56         5.3996
   356.70         5.3391
   356.84         5.2869
   356.98         5.2459
   357.12         5.2161
   357.26         5.1952
   357.40         5.1799
   357.54         5.1678
   357.68         5.1573
   357.82         5.1476
   357.96         5.1386
   358.10         5.1323
   358.24         5.1310
   358.38         5.1367
   358.52         5.1504
   358.66         5.1734
   358.80         5.2067
   358.94         5.2495
   359.08         5.2984
   359.22         5.3481
   359.36         5.3936
   359.50         5.4313
   359.64         5.4581
   359.78         5.4725
   359.92         5.4748
   360.06         5.4670
   360.20         5.4515
   360.34         5.4304
   360.48         5.4065
   360.62         5.3834
   360.76         5.3640
   360.90         5.3495
   361.04         5.3410
   361.18         5.3411
   361.32         5.3525
   361.46         5.3757
   361.60         5.4099
   361.74         5.4532
   361.88         5.5025
   362.02         5.5521
   362.16         5.5956
   362.30         5.6277
   362.44         5.6448
   362.58         5.6456
   362.72         5.6313
   362.86         5.6047
   363.00         5.5706
   363.14         5.5344
   363.28         5.5014
   363.42         5.4762
   363.56         5.4628
   363.70         5.4639
   363.84         5.4795
   363.98         5.5062
   364.12         5.5397
   364.26         5.5759
   364.40         5.6119
   364.54         5.6446
   364.68         5.6734
   364.82         5.6996
   364.96         5.7248
   365.10         5.7495
   365.24         5.7726
   365.38         5.7921
   365.52         5.8071
   365.66         5.8166
   365.80         5.8193
   365.94         5.8144
   366.08         5.8020
   366.22         5.7837
   366.36         5.7613
   366.50         5.7362
   366.64         5.7101
   366.78         5.6855
   366.92         5.6649
   367.06         5.6503
   367.20         5.6419
   367.34         5.6382
   367.48         5.6368
   367.62         5.6350
   367.76         5.6305
   367.90         5.6222
   368.04         5.6109
   368.18         5.5990
   368.32         5.5886
   368.46         5.5816
   368.60         5.5804
   368.74         5.5877
   368.88         5.6066
   369.02         5.6384
   369.16         5.6815
   369.30         5.7314
   369.44         5.7823
   369.58         5.8293
   369.72         5.8675
   369.86         5.8924
   370.00         5.9003
   370.14         5.8917
   370.28         5.8714
   370.42         5.8488
   370.56         5.8349
   370.70         5.8392
   370.84         5.8655
   370.98         5.9118
   371.12         5.9729
   371.26         6.0442
   371.40         6.1228
   371.54         6.2059
   371.68         6.2898
   371.82         6.3708
   371.96         6.4457
   372.10         6.5107
   372.24         6.5599
   372.38         6.5854
   372.52         6.5827
   372.66         6.5542
   372.80         6.5096
   372.94         6.4636
   373.08         6.4308
   373.22         6.4210
   373.36         6.4372
   373.50         6.4769
   373.64         6.5346
   373.78         6.6032
   373.92         6.6739
   374.06         6.7383
   374.20         6.7900
   374.34         6.8260
   374.48         6.8470
   374.62         6.8557
   374.76         6.8577
   374.90         6.8628
   375.04         6.8859
   375.18         6.9433
   375.32         7.0454
   375.46         7.1919
   375.60         7.3699
   375.74         7.5557
   375.88         7.7196
   376.02         7.8342
   376.16         7.8822
   376.30         7.8600
   376.44         7.7787
   376.58         7.6634
   376.72         7.5480
   376.86         7.4673
   377.00         7.4487
   377.14         7.5091
   377.28         7.6548
   377.42         7.8825
   377.56         8.1799
   377.70         8.5254
   377.84         8.8899
   377.98         9.2396
   378.12         9.5406
   378.26         9.7639
   378.40         9.8877
   378.54         9.8992
   378.68         9.7972
   378.82         9.5931
   378.96         9.3102
   379.10         8.9820
   379.24         8.6477
   379.38         8.3450
   379.52         8.1055
   379.66         7.9544
   379.80         7.9111
   379.94         7.9866
   380.08         8.1800
   380.22         8.4781
   380.36         8.8588
   380.50         9.2948
   380.64         9.7558
   380.78         10.2111
   380.92         10.6322
   381.06         10.9956
   381.20         11.2857
   381.34         11.4958
   381.48         11.6262
   381.62         11.6801
   381.76         11.6610
   381.90         11.5701
   382.04         11.4062
   382.18         11.1677
   382.32         10.8544
   382.46         10.4692
   382.60         10.0207
   382.74         9.5266
   382.88         9.0144
   383.02         8.5196
   383.16         8.0801
   383.30         7.7313
   383.44         7.5016
   383.58         7.4103
   383.72         7.4664
   383.86         7.6665
   384.00         7.9958
   384.14         8.4305
   384.28         8.9404
   384.42         9.4911
   384.56         10.0480
   384.70         10.5793
   384.84         11.0611
   384.98         11.4798
   385.12         11.8335
   385.26         12.1288
   385.40         12.3760
   385.54         12.5847
   385.68         12.7634
   385.82         12.9188
   385.96         13.0541
   386.10         13.1688
   386.24         13.2592
   386.38         13.3186
   386.52         13.3386
   386.66         13.3106
   386.80         13.2276
   386.94         13.0852
   387.08         12.8822
   387.22         12.6210
   387.36         12.3059
   387.50         11.9415
   387.64         11.5320
   387.78         11.0825
   387.92         10.6023
   388.06         10.1071
   388.20         9.6184
   388.34         9.1600
   388.48         8.7557
   388.62         8.4270
   388.76         8.1924
   388.90         8.0653
   389.04         8.0524
   389.18         8.1534
   389.32         8.3610
   389.46         8.6608
   389.60         9.0333
   389.74         9.4549
   389.88         9.9000
   390.02         10.3440
   390.16         10.7651
   390.30         11.1469
   390.44         11.4814
   390.58         11.7677
   390.72         12.0083
   390.86         12.2056
   391.00         12.3626
   391.14         12.4841
   391.28         12.5758
   391.42         12.6406
   391.56         12.6773
   391.70         12.6806
   391.84         12.6407
   391.98         12.5417
   392.12         12.3637
   392.26         12.0895
   392.40         11.7132
   392.54         11.2453
   392.68         10.7139
   392.82         10.1601
   392.96         9.6325
   393.10         9.1788
   393.24         8.8401
   393.38         8.6471
   393.52         8.6177
   393.66         8.7541
   393.80         9.0412
   393.94         9.4472
   394.08         9.9290
   394.22         10.4378
   394.36         10.9250
   394.50         11.3469
   394.64         11.6712
   394.78         11.8828
   394.92         11.9834
   395.06         11.9852
   395.20         11.9019
   395.34         11.7422
   395.48         11.5063
   395.62         11.1882
   395.76         10.7827
   395.90         10.2934
   396.04         9.7368
   396.18         9.1410
   396.32         8.5413
   396.46         7.9776
   396.60         7.4912
   396.74         7.1204
   396.88         6.8953
   397.02         6.8345
   397.16         6.9429
   397.30         7.2121
   397.44         7.6211
   397.58         8.1381
   397.72         8.7247
   397.86         9.3412
   398.00         9.9511
   398.14         10.5257
   398.28         11.0456
   398.42         11.5024
   398.56         11.8964
   398.70         12.2328
   398.84         12.5185
   398.98         12.7610
   399.12         12.9672
   399.26         13.1422
   399.40         13.2892
   399.54         13.4102
   399.68         13.5081
   399.82         13.5871
   399.96         13.6522
   400.10         13.7090
   400.24         13.7617
   400.38         13.8131
   400.52         13.8653
   400.66         13.9199
   400.80         13.9767
   400.94         14.0343
   401.08         14.0908
   401.22         14.1442
   401.36         14.1937
   401.50         14.2393
   401.64         14.2806
   401.78         14.3143
   401.92         14.3356
   402.06         14.3411
   402.20         14.3307
   402.34         14.3066
   402.48         14.2729
   402.62         14.2348
   402.76         14.1986
   402.90         14.1694
   403.04         14.1509
   403.18         14.1447
   403.32         14.1494
   403.46         14.1614
   403.60         14.1763
   403.74         14.1914
   403.88         14.2055
   404.02         14.2179
   404.16         14.2263
   404.30         14.2267
   404.44         14.2150
   404.58         14.1907
   404.72         14.1575
   404.86         14.1216
   405.00         14.0883
   405.14         14.0600
   405.28         14.0362
   405.42         14.0139
   405.56         13.9879
   405.70         13.9547
   405.84         13.9127
   405.98         13.8622
   406.12         13.8048
   406.26         13.7415
   406.40         13.6718
   406.54         13.5929
   406.68         13.5011
   406.82         13.3954
   406.96         13.2795
   407.10         13.1589
   407.24         13.0379
   407.38         12.9196
   407.52         12.8058
   407.66         12.6971
   407.80         12.5937
   407.94         12.4949
   408.08         12.3977
   408.22         12.2967
   408.36         12.1844
   408.50         12.0504
   408.64         11.8815
   408.78         11.6638
   408.92         11.3848
   409.06         11.0378
   409.20         10.6263
   409.34         10.1662
   409.48         9.6829
   409.62         9.2063
   409.76         8.7669
   409.90         8.3953
   410.04         8.1202
   410.18         7.9646
   410.32         7.9413
   410.46         8.0513
   410.60         8.2841
   410.74         8.6203
   410.88         9.0336
   411.02         9.4928
   411.16         9.9656
   411.30         10.4226
   411.44         10.8409
   411.58         11.2077
   411.72         11.5201
   411.86         11.7826
   412.00         12.0019
   412.14         12.1844
   412.28         12.3355
   412.42         12.4619
   412.56         12.5717
   412.70         12.6736
   412.84         12.7749
   412.98         12.8795
   413.12         12.9880
   413.26         13.0985
   413.40         13.2082
   413.54         13.3137
   413.68         13.4111
   413.82         13.4973
   413.96         13.5701
   414.10         13.6274
   414.24         13.6673
   414.38         13.6872
   414.52         13.6851
   414.66         13.6623
   414.80         13.6242
   414.94         13.5783
   415.08         13.5331
   415.22         13.4964
   415.36         13.4746
   415.50         13.4700
   415.64         13.4822
   415.78         13.5097
   415.92         13.5491
   416.06         13.5933
   416.20         13.6325
   416.34         13.6565
   416.48         13.6580
   416.62         13.6320
   416.76         13.5766
   416.90         13.4944
   417.04         13.3921
   417.18         13.2799
   417.32         13.1697
   417.46         13.0716
   417.60         12.9932
   417.74         12.9405
   417.88         12.9177
   418.02         12.9256
   418.16         12.9614
   418.30         13.0201
   418.44         13.0939
   418.58         13.1716
   418.72         13.2420
   418.86         13.2986
   419.00         13.3396
   419.14         13.3649
   419.28         13.3756
   419.42         13.3735
   419.56         13.3625
   419.70         13.3463
   419.84         13.3289
   419.98         13.3138
   420.12         13.3040
   420.26         13.3016
   420.40         13.3075
   420.54         13.3206
   420.68         13.3384
   420.82         13.3578
   420.96         13.3759
   421.10         13.3900
   421.24         13.3974
   421.38         13.3950
   421.52         13.3797
   421.66         13.3496
   421.80         13.3065
   421.94         13.2544
   422.08         13.1971
   422.22         13.1373
   422.36         13.0770
   422.50         13.0185
   422.64         12.9638
   422.78         12.9150
   422.92         12.8742
   423.06         12.8443
   423.20         12.8282
   423.34         12.8274
   423.48         12.8401
   423.62         12.8617
   423.76         12.8860
   423.90         12.9069
   424.04         12.9206
   424.18         12.9276
   424.32         12.9324
   424.46         12.9393
   424.60         12.9491
   424.74         12.9599
   424.88         12.9703
   425.02         12.9814
   425.16         12.9956
   425.30         13.0151
   425.44         13.0414
   425.58         13.0754
   425.72         13.1159
   425.86         13.1576
   426.00         13.1919
   426.14         13.2106
   426.28         13.2094
   426.42         13.1876
   426.56         13.1486
   426.70         13.0983
   426.84         13.0441
   426.98         12.9925
   427.12         12.9477
   427.26         12.9116
   427.40         12.8853
   427.54         12.8682
   427.68         12.8577
   427.82         12.8499
   427.96         12.8394
   428.10         12.8210
   428.24         12.7906
   428.38         12.7453
   428.52         12.6840
   428.66         12.6082
   428.80         12.5213
   428.94         12.4273
   429.08         12.3300
   429.22         12.2332
   429.36         12.1393
   429.50         12.0492
   429.64         11.9624
   429.78         11.8787
   429.92         11.7998
   430.06         11.7282
   430.20         11.6659
   430.34         11.6139
   430.48         11.5730
   430.62         11.5446
   430.76         11.5290
   430.90         11.5248
   431.04         11.5279
   431.18         11.5321
   431.32         11.5300
   431.46         11.5150
   431.60         11.4836
   431.74         11.4354
   431.88         11.3711
   432.02         11.2903
   432.16         11.1916
   432.30         11.0732
   432.44         10.9318
   432.58         10.7614
   432.72         10.5531
   432.86         10.2976
   433.00         9.9897
   433.14         9.6333
   433.28         9.2407
   433.42         8.8309
   433.56         8.4279
   433.70         8.0581
   433.84         7.7486
   433.98         7.5233
   434.12         7.4002
   434.26         7.3903
   434.40         7.4964
   434.54         7.7118
   434.68         8.0222
   434.82         8.4065
   434.96         8.8393
   435.10         9.2942
   435.24         9.7469
   435.38         10.1788
   435.52         10.5774
   435.66         10.9360
   435.80         11.2517
   435.94         11.5240
   436.08         11.7530
   436.22         11.9391
   436.36         12.0827
   436.50         12.1859
   436.64         12.2535
   436.78         12.2932
   436.92         12.3147
   437.06         12.3273
   437.20         12.3367
   437.34         12.3446
   437.48         12.3510
   437.62         12.3566
   437.76         12.3623
   437.90         12.3684
   438.04         12.3736
   438.18         12.3753
   438.32         12.3702
   438.46         12.3572
   438.60         12.3374
   438.74         12.3124
   438.88         12.2833
   439.02         12.2519
   439.16         12.2224
   439.30         12.1987
   439.44         12.1835
   439.58         12.1780
   439.72         12.1816
   439.86         12.1927
   440.00         12.2113
   440.14         12.2383
   440.28         12.2726
   440.42         12.3094
   440.56         12.3416
   440.70         12.3632
   440.84         12.3721
   440.98         12.3697
   441.12         12.3595
   441.26         12.3454
   441.40         12.3301
   441.54         12.3169
   441.68         12.3106
   441.82         12.3161
   441.96         12.3359
   442.10         12.3691
   442.24         12.4117
   442.38         12.4583
   442.52         12.5045
   442.66         12.5481
   442.80         12.5874
   442.94         12.6200
   443.08         12.6428
   443.22         12.6538
   443.36         12.6539
   443.50         12.6458
   443.64         12.6308
   443.78         12.6093
   443.92         12.5828
   444.06         12.5533
   444.20         12.5224
   444.34         12.4913
   444.48         12.4596
   444.62         12.4263
   444.76         12.3914
   444.90         12.3567
   445.04         12.3254
   445.18         12.3000
   445.32         12.2805
   445.46         12.2639
   445.60         12.2456
   445.74         12.2227
   445.88         12.1967
   446.02         12.1716
   446.16         12.1511
   446.30         12.1367
   446.44         12.1292
   446.58         12.1299
   446.72         12.1376
   446.86         12.1488
   447.00         12.1589
   447.14         12.1648
   447.28         12.1656
   447.42         12.1621
   447.56         12.1546
   447.70         12.1428
   447.84         12.1263
   447.98         12.1050
   448.12         12.0804
   448.26         12.0565
   448.40         12.0382
   448.54         12.0298
   448.68         12.0337
   448.82         12.0495
   448.96         12.0751
   449.10         12.1096
   449.24         12.1522
   449.38         12.2009
   449.52         12.2525
   449.66         12.3057
   449.80         12.3611
   449.94         12.4180
   450.08         12.4735
   450.22         12.5236
   450.36         12.5654
   450.50         12.5964
   450.64         12.6137
   450.78         12.6149
   450.92         12.5988
   451.06         12.5639
   451.20         12.5105
   451.34         12.4414
   451.48         12.3603
   451.62         12.2716
   451.76         12.1803
   451.90         12.0900
   452.04         12.0015
   452.18         11.9154
   452.32         11.8356
   452.46         11.7684
   452.60         11.7199
   452.74         11.6943
   452.88         11.6929
   453.02         11.7142
   453.16         11.7540
   453.30         11.8063
   453.44         11.8648
   453.58         11.9220
   453.72         11.9694
   453.86         11.9993
   454.00         12.0067
   454.14         11.9886
   454.28         11.9445
   454.42         11.8774
   454.56         11.7931
   454.70         11.7002
   454.84         11.6100
   454.98         11.5335
   455.12         11.4780
   455.26         11.4465
   455.40         11.4389
   455.54         11.4536
   455.68         11.4883
   455.82         11.5392
   455.96         11.6010
   456.10         11.6676
   456.24         11.7327
   456.38         11.7918
   456.52         11.8437
   456.66         11.8883
   456.80         11.9244
   456.94         11.9497
   457.08         11.9615
   457.22         11.9574
   457.36         11.9370
   457.50         11.9015
   457.64         11.8531
   457.78         11.7956
   457.92         11.7349
   458.06         11.6772
   458.20         11.6284
   458.34         11.5937
   458.48         11.5768
