# File HD66171
# Wavelength [nm]    Normalized Amplitude
   349.70         9.5651
   349.84         9.4954
   349.98         9.4801
   350.12         9.5110
   350.26         9.5743
   350.40         9.6556
   350.54         9.7433
   350.68         9.8275
   350.82         9.8978
   350.96         9.9444
   351.10         9.9606
   351.24         9.9444
   351.38         9.8978
   351.52         9.8275
   351.66         9.7433
   351.80         9.6556
   351.94         9.5743
   352.08         9.5110
   352.22         9.4801
   352.36         9.4954
   352.50         9.5651
   352.64         9.6897
   352.78         9.8608
   352.92         10.0642
   353.06         10.2838
   353.20         10.5028
   353.34         10.7059
   353.48         10.8809
   353.62         11.0223
   353.76         11.1302
   353.90         11.2081
   354.04         11.2608
   354.18         11.2942
   354.32         11.3117
   354.46         11.3144
   354.60         11.3027
   354.74         11.2773
   354.88         11.2403
   355.02         11.1933
   355.16         11.1342
   355.30         11.0576
   355.44         10.9586
   355.58         10.8364
   355.72         10.6934
   355.86         10.5325
   356.00         10.3585
   356.14         10.1782
   356.28         10.0008
   356.42         9.8365
   356.56         9.6904
   356.70         9.5621
   356.84         9.4491
   356.98         9.3474
   357.12         9.2531
   357.26         9.1630
   357.40         9.0717
   357.54         8.9733
   357.68         8.8658
   357.82         8.7519
   357.96         8.6411
   358.10         8.5498
   358.24         8.4976
   358.38         8.5019
   358.52         8.5768
   358.66         8.7302
   358.80         8.9592
   358.94         9.2497
   359.08         9.5767
   359.22         9.9083
   359.36         10.2147
   359.50         10.4731
   359.64         10.6664
   359.78         10.7840
   359.92         10.8236
   360.06         10.7925
   360.20         10.7081
   360.34         10.5924
   360.48         10.4619
   360.62         10.3262
   360.76         10.1927
   360.90         10.0681
   361.04         9.9605
   361.18         9.8800
   361.32         9.8372
   361.46         9.8408
   361.60         9.8953
   361.74         9.9982
   361.88         10.1388
   362.02         10.3006
   362.16         10.4646
   362.30         10.6132
   362.44         10.7341
   362.58         10.8217
   362.72         10.8756
   362.86         10.8991
   363.00         10.8964
   363.14         10.8712
   363.28         10.8290
   363.42         10.7786
   363.56         10.7292
   363.70         10.6892
   363.84         10.6640
   363.98         10.6556
   364.12         10.6643
   364.26         10.6892
   364.40         10.7289
   364.54         10.7843
   364.68         10.8615
   364.82         10.9692
   364.96         11.1143
   365.10         11.2986
   365.24         11.5176
   365.38         11.7610
   365.52         12.0136
   365.66         12.2568
   365.80         12.4728
   365.94         12.6491
   366.08         12.7794
   366.22         12.8647
   366.36         12.9130
   366.50         12.9336
   366.64         12.9325
   366.78         12.9116
   366.92         12.8703
   367.06         12.8090
   367.20         12.7309
   367.34         12.6385
   367.48         12.5318
   367.62         12.4097
   367.76         12.2740
   367.90         12.1316
   368.04         11.9943
   368.18         11.8750
   368.32         11.7851
   368.46         11.7336
   368.60         11.7285
   368.74         11.7757
   368.88         11.8760
   369.02         12.0229
   369.16         12.2003
   369.30         12.3856
   369.44         12.5548
   369.58         12.6876
   369.72         12.7686
   369.86         12.7882
   370.00         12.7470
   370.14         12.6585
   370.28         12.5471
   370.42         12.4408
   370.56         12.3637
   370.70         12.3273
   370.84         12.3272
   370.98         12.3494
   371.12         12.3789
   371.26         12.4050
   371.40         12.4202
   371.54         12.4176
   371.68         12.3908
   371.82         12.3354
   371.96         12.2485
   372.10         12.1308
   372.24         11.9856
   372.38         11.8156
   372.52         11.6258
   372.66         11.4259
   372.80         11.2281
   372.94         11.0445
   373.08         10.8856
   373.22         10.7566
   373.36         10.6555
   373.50         10.5781
   373.64         10.5223
   373.78         10.4877
   373.92         10.4732
   374.06         10.4783
   374.20         10.5047
   374.34         10.5557
   374.48         10.6327
   374.62         10.7308
   374.76         10.8417
   374.90         10.9617
   375.04         11.0947
   375.18         11.2496
   375.32         11.4319
   375.46         11.6369
   375.60         11.8499
   375.74         12.0507
   375.88         12.2197
   376.02         12.3460
   376.16         12.4340
   376.30         12.5011
   376.44         12.5710
   376.58         12.6705
   376.72         12.8236
   376.86         13.0436
   377.00         13.3288
   377.14         13.6646
   377.28         14.0316
   377.42         14.4108
   377.56         14.7825
   377.70         15.1234
   377.84         15.4091
   377.98         15.6187
   378.12         15.7381
   378.26         15.7609
   378.40         15.6873
   378.54         15.5221
   378.68         15.2756
   378.82         14.9674
   378.96         14.6258
   379.10         14.2859
   379.24         13.9868
   379.38         13.7641
   379.52         13.6424
   379.66         13.6342
   379.80         13.7425
   379.94         13.9589
   380.08         14.2602
   380.22         14.6101
   380.36         14.9660
   380.50         15.2853
   380.64         15.5292
   380.78         15.6644
   380.92         15.6662
   381.06         15.5251
   381.20         15.2490
   381.34         14.8605
   381.48         14.3900
   381.62         13.8695
   381.76         13.3288
   381.90         12.7921
   382.04         12.2753
   382.18         11.7879
   382.32         11.3372
   382.46         10.9279
   382.60         10.5590
   382.74         10.2269
   382.88         9.9321
   383.02         9.6850
   383.16         9.5044
   383.30         9.4114
   383.44         9.4243
   383.58         9.5566
   383.72         9.8143
   383.86         10.1904
   384.00         10.6645
   384.14         11.2078
   384.28         11.7882
   384.42         12.3693
   384.56         12.9121
   384.70         13.3790
   384.84         13.7397
   384.98         13.9795
   385.12         14.1018
   385.26         14.1255
   385.40         14.0791
   385.54         13.9958
   385.68         13.9088
   385.82         13.8440
   385.96         13.8152
   386.10         13.8241
   386.24         13.8661
   386.38         13.9324
   386.52         14.0097
   386.66         14.0820
   386.80         14.1333
   386.94         14.1504
   387.08         14.1252
   387.22         14.0556
   387.36         13.9453
   387.50         13.8020
   387.64         13.6359
   387.78         13.4572
   387.92         13.2748
   388.06         13.0969
   388.20         12.9337
   388.34         12.7965
   388.48         12.6954
   388.62         12.6387
   388.76         12.6331
   388.90         12.6816
   389.04         12.7795
   389.18         12.9138
   389.32         13.0686
   389.46         13.2310
   389.60         13.3932
   389.74         13.5513
   389.88         13.7041
   390.02         13.8526
   390.16         14.0013
   390.30         14.1576
   390.44         14.3293
   390.58         14.5187
   390.72         14.7182
   390.86         14.9116
   391.00         15.0781
   391.14         15.1985
   391.28         15.2555
   391.42         15.2327
   391.56         15.1153
   391.70         14.8896
   391.84         14.5455
   391.98         14.0791
   392.12         13.4948
   392.26         12.8054
   392.40         12.0332
   392.54         11.2105
   392.68         10.3793
   392.82         9.5874
   392.96         8.8838
   393.10         8.3128
   393.24         7.9111
   393.38         7.7062
   393.52         7.7150
   393.66         7.9409
   393.80         8.3709
   393.94         8.9736
   394.08         9.7029
   394.22         10.5040
   394.36         11.3205
   394.50         12.1016
   394.64         12.8067
   394.78         13.4069
   394.92         13.8820
   395.06         14.2176
   395.20         14.4026
   395.34         14.4276
   395.48         14.2849
   395.62         13.9717
   395.76         13.4956
   395.90         12.8801
   396.04         12.1660
   396.18         11.4061
   396.32         10.6613
   396.46         9.9954
   396.60         9.4697
   396.74         9.1367
   396.88         9.0336
   397.02         9.1768
   397.16         9.5602
   397.30         10.1561
   397.44         10.9177
   397.58         11.7859
   397.72         12.6987
   397.86         13.5994
   398.00         14.4414
   398.14         15.1912
   398.28         15.8303
   398.42         16.3553
   398.56         16.7750
   398.70         17.1059
   398.84         17.3676
   398.98         17.5798
   399.12         17.7586
   399.26         17.9127
   399.40         18.0425
   399.54         18.1454
   399.68         18.2200
   399.82         18.2698
   399.96         18.3033
   400.10         18.3321
   400.24         18.3670
   400.38         18.4151
   400.52         18.4785
   400.66         18.5561
   400.80         18.6453
   400.94         18.7423
   401.08         18.8434
   401.22         18.9457
   401.36         19.0470
   401.50         19.1459
   401.64         19.2397
   401.78         19.3223
   401.92         19.3859
   402.06         19.4253
   402.20         19.4406
   402.34         19.4351
   402.48         19.4151
   402.62         19.3881
   402.76         19.3615
   402.90         19.3415
   403.04         19.3305
   403.18         19.3255
   403.32         19.3188
   403.46         19.3016
   403.60         19.2689
   403.74         19.2240
   403.88         19.1747
   404.02         19.1292
   404.16         19.0917
   404.30         19.0598
   404.44         19.0280
   404.58         18.9936
   404.72         18.9594
   404.86         18.9313
   405.00         18.9131
   405.14         18.9032
   405.28         18.8946
   405.42         18.8795
   405.56         18.8498
   405.70         18.8009
   405.84         18.7330
   405.98         18.6525
   406.12         18.5743
   406.26         18.5154
   406.40         18.4848
   406.54         18.4801
   406.68         18.4940
   406.82         18.5205
   406.96         18.5582
   407.10         18.6083
   407.24         18.6714
   407.38         18.7479
   407.52         18.8375
   407.66         18.9404
   407.80         19.0570
   407.94         19.1891
   408.08         19.3355
   408.22         19.4894
   408.36         19.6392
   408.50         19.7700
   408.64         19.8659
   408.78         19.9098
   408.92         19.8823
   409.06         19.7683
   409.20         19.5668
   409.34         19.2940
   409.48         18.9772
   409.62         18.6471
   409.76         18.3345
   409.90         18.0696
   410.04         17.8805
   410.18         17.7903
   410.32         17.8115
   410.46         17.9426
   410.60         18.1695
   410.74         18.4692
   410.88         18.8142
   411.02         19.1754
   411.16         19.5232
   411.30         19.8315
   411.44         20.0813
   411.58         20.2645
   411.72         20.3856
   411.86         20.4553
   412.00         20.4826
   412.14         20.4725
   412.28         20.4291
   412.42         20.3594
   412.56         20.2742
   412.70         20.1890
   412.84         20.1197
   412.98         20.0751
   413.12         20.0537
   413.26         20.0501
   413.40         20.0607
   413.54         20.0839
   413.68         20.1174
   413.82         20.1571
   413.96         20.1987
   414.10         20.2357
   414.24         20.2592
   414.38         20.2606
   414.52         20.2350
   414.66         20.1835
   414.80         20.1141
   414.94         20.0403
   415.08         19.9775
   415.22         19.9393
   415.36         19.9335
   415.50         19.9596
   415.64         20.0114
   415.78         20.0838
   415.92         20.1728
   416.06         20.2706
   416.20         20.3631
   416.34         20.4327
   416.48         20.4639
   416.62         20.4467
   416.76         20.3777
   416.90         20.2607
   417.04         20.1060
   417.18         19.9290
   417.32         19.7475
   417.46         19.5771
   417.60         19.4289
   417.74         19.3101
   417.88         19.2250
   418.02         19.1746
   418.16         19.1573
   418.30         19.1693
   418.44         19.2027
   418.58         19.2444
   418.72         19.2811
   418.86         19.3050
   419.00         19.3132
   419.14         19.3061
   419.28         19.2863
   419.42         19.2588
   419.56         19.2297
   419.70         19.2052
   419.84         19.1932
   419.98         19.2015
   420.12         19.2355
   420.26         19.2982
   420.40         19.3896
   420.54         19.5046
   420.68         19.6331
   420.82         19.7627
   420.96         19.8802
   421.10         19.9715
   421.24         20.0212
   421.38         20.0137
   421.52         19.9365
   421.66         19.7863
   421.80         19.5744
   421.94         19.3239
   422.08         19.0614
   422.22         18.8112
   422.36         18.5924
   422.50         18.4192
   422.64         18.3007
   422.78         18.2412
   422.92         18.2410
   423.06         18.2959
   423.20         18.3991
   423.34         18.5420
   423.48         18.7108
   423.62         18.8846
   423.76         19.0388
   423.90         19.1521
   424.04         19.2144
   424.18         19.2297
   424.32         19.2107
   424.46         19.1718
   424.60         19.1220
   424.74         19.0637
   424.88         18.9951
   425.02         18.9174
   425.16         18.8401
   425.30         18.7775
   425.44         18.7420
   425.58         18.7391
   425.72         18.7650
   425.86         18.8069
   426.00         18.8451
   426.14         18.8579
   426.28         18.8294
   426.42         18.7554
   426.56         18.6439
   426.70         18.5093
   426.84         18.3660
   426.98         18.2273
   427.12         18.1057
   427.26         18.0101
   427.40         17.9430
   427.54         17.9039
   427.68         17.8912
   427.82         17.8992
   427.96         17.9156
   428.10         17.9248
   428.24         17.9124
   428.38         17.8679
   428.52         17.7842
   428.66         17.6577
   428.80         17.4880
   428.94         17.2778
   429.08         17.0310
   429.22         16.7516
   429.36         16.4429
   429.50         16.1090
   429.64         15.7555
   429.78         15.3892
   429.92         15.0198
   430.06         14.6637
   430.20         14.3464
   430.34         14.0999
   430.48         13.9588
   430.62         13.9542
   430.76         14.1059
   430.90         14.4168
   431.04         14.8694
   431.18         15.4260
   431.32         16.0351
   431.46         16.6451
   431.60         17.2145
   431.74         17.7155
   431.88         18.1320
   432.02         18.4578
   432.16         18.6947
   432.30         18.8538
   432.44         18.9531
   432.58         19.0119
   432.72         19.0439
   432.86         19.0533
   433.00         19.0371
   433.14         18.9916
   433.28         18.9149
   433.42         18.8082
   433.56         18.6770
   433.70         18.5328
   433.84         18.3929
   433.98         18.2787
   434.12         18.2121
   434.26         18.2120
   434.40         18.2888
   434.54         18.4403
   434.68         18.6542
   434.82         18.9117
   434.96         19.1908
   435.10         19.4693
   435.24         19.7292
   435.38         19.9606
   435.52         20.1630
   435.66         20.3438
   435.80         20.5134
   435.94         20.6774
   436.08         20.8340
   436.22         20.9732
   436.36         21.0809
   436.50         21.1440
   436.64         21.1556
   436.78         21.1181
   436.92         21.0395
   437.06         20.9251
   437.20         20.7741
   437.34         20.5844
   437.48         20.3598
   437.62         20.1113
   437.76         19.8552
   437.90         19.6093
   438.04         19.3901
   438.18         19.2113
   438.32         19.0850
   438.46         19.0216
   438.60         19.0287
   438.74         19.1066
   438.88         19.2476
   439.02         19.4371
   439.16         19.6562
   439.30         19.8809
   439.44         20.0846
   439.58         20.2439
   439.72         20.3458
   439.86         20.3927
   440.00         20.4008
   440.14         20.3933
   440.28         20.3895
   440.42         20.4010
   440.56         20.4357
   440.70         20.5007
   440.84         20.6017
   440.98         20.7401
   441.12         20.9098
   441.26         21.0976
   441.40         21.2866
   441.54         21.4621
   441.68         21.6146
   441.82         21.7400
   441.96         21.8377
   442.10         21.9101
   442.24         21.9603
   442.38         21.9897
   442.52         21.9987
   442.66         21.9886
   442.80         21.9619
   442.94         21.9221
   443.08         21.8741
   443.22         21.8249
   443.36         21.7814
   443.50         21.7472
   443.64         21.7232
   443.78         21.7091
   443.92         21.7069
   444.06         21.7190
   444.20         21.7421
   444.34         21.7660
   444.48         21.7776
   444.62         21.7652
   444.76         21.7218
   444.90         21.6457
   445.04         21.5421
   445.18         21.4217
   445.32         21.2973
   445.46         21.1806
   445.60         21.0820
   445.74         21.0120
   445.88         20.9809
   446.02         20.9969
   446.16         21.0643
   446.30         21.1822
   446.44         21.3449
   446.58         21.5410
   446.72         21.7529
   446.86         21.9599
   447.00         22.1436
   447.14         22.2925
   447.28         22.4005
   447.42         22.4668
   447.56         22.4955
   447.70         22.4923
   447.84         22.4621
   447.98         22.4112
   448.12         22.3469
   448.26         22.2762
   448.40         22.2067
   448.54         22.1460
   448.68         22.1007
   448.82         22.0739
   448.96         22.0660
   449.10         22.0766
   449.24         22.1070
   449.38         22.1586
   449.52         22.2316
   449.66         22.3235
   449.80         22.4302
   449.94         22.5459
   450.08         22.6633
   450.22         22.7719
   450.36         22.8587
   450.50         22.9134
   450.64         22.9325
   450.78         22.9170
   450.92         22.8707
   451.06         22.7996
   451.20         22.7098
   451.34         22.6054
   451.48         22.4890
   451.62         22.3626
   451.76         22.2291
   451.90         22.0908
   452.04         21.9469
   452.18         21.7951
   452.32         21.6365
   452.46         21.4788
   452.60         21.3349
   452.74         21.2189
   452.88         21.1429
   453.02         21.1147
   453.16         21.1381
   453.30         21.2111
   453.44         21.3248
   453.58         21.4631
   453.72         21.6062
   453.86         21.7357
   454.00         21.8381
   454.14         21.9048
   454.28         21.9338
   454.42         21.9310
   454.56         21.9079
   454.70         21.8787
   454.84         21.8591
   454.98         21.8642
   455.12         21.9033
   455.26         21.9769
   455.40         22.0793
   455.54         22.2021
   455.68         22.3365
   455.82         22.4742
   455.96         22.6077
   456.10         22.7312
   456.24         22.8397
   456.38         22.9307
   456.52         23.0051
   456.66         23.0642
   456.80         23.1072
   456.94         23.1330
   457.08         23.1408
   457.22         23.1286
