# File HD70178
# Wavelength [nm]    Normalized Amplitude
   349.70         11.8978
   349.84         11.9538
   349.98         12.0276
   350.12         12.1024
   350.26         12.1648
   350.40         12.2091
   350.54         12.2368
   350.68         12.2526
   350.82         12.2605
   350.96         12.2633
   351.10         12.2637
   351.24         12.2633
   351.38         12.2605
   351.52         12.2526
   351.66         12.2368
   351.80         12.2091
   351.94         12.1648
   352.08         12.1024
   352.22         12.0276
   352.36         11.9538
   352.50         11.8978
   352.64         11.8753
   352.78         11.8993
   352.92         11.9794
   353.06         12.1173
   353.20         12.3037
   353.34         12.5198
   353.48         12.7432
   353.62         12.9529
   353.76         13.1308
   353.90         13.2639
   354.04         13.3449
   354.18         13.3707
   354.32         13.3406
   354.46         13.2572
   354.60         13.1242
   354.74         12.9478
   354.88         12.7385
   355.02         12.5115
   355.16         12.2818
   355.30         12.0588
   355.44         11.8452
   355.58         11.6402
   355.72         11.4405
   355.86         11.2420
   356.00         11.0433
   356.14         10.8468
   356.28         10.6584
   356.42         10.4853
   356.56         10.3337
   356.70         10.2060
   356.84         10.0984
   356.98         10.0022
   357.12         9.9040
   357.26         9.7870
   357.40         9.6371
   357.54         9.4481
   357.68         9.2208
   357.82         8.9639
   357.96         8.6966
   358.10         8.4496
   358.24         8.2608
   358.38         8.1689
   358.52         8.2096
   358.66         8.4102
   358.80         8.7822
   358.94         9.3153
   359.08         9.9761
   359.22         10.7128
   359.36         11.4633
   359.50         12.1677
   359.64         12.7765
   359.78         13.2524
   359.92         13.5731
   360.06         13.7346
   360.20         13.7526
   360.34         13.6580
   360.48         13.4888
   360.62         13.2808
   360.76         13.0613
   360.90         12.8522
   361.04         12.6746
   361.18         12.5476
   361.32         12.4854
   361.46         12.4971
   361.60         12.5861
   361.74         12.7479
   361.88         12.9673
   362.02         13.2194
   362.16         13.4768
   362.30         13.7131
   362.44         13.9059
   362.58         14.0427
   362.72         14.1239
   362.86         14.1596
   363.00         14.1619
   363.14         14.1396
   363.28         14.0994
   363.42         14.0508
   363.56         14.0064
   363.70         13.9776
   363.84         13.9701
   363.98         13.9867
   364.12         14.0287
   364.26         14.0936
   364.40         14.1750
   364.54         14.2680
   364.68         14.3781
   364.82         14.5212
   364.96         14.7137
   365.10         14.9650
   365.24         15.2744
   365.38         15.6301
   365.52         16.0101
   365.66         16.3836
   365.80         16.7175
   365.94         16.9852
   366.08         17.1714
   366.22         17.2738
   366.36         17.3030
   366.50         17.2783
   366.64         17.2191
   366.78         17.1375
   366.92         17.0396
   367.06         16.9306
   367.20         16.8187
   367.34         16.7106
   367.48         16.6033
   367.62         16.4868
   367.76         16.3530
   367.90         16.2038
   368.04         16.0527
   368.18         15.9197
   368.32         15.8230
   368.46         15.7744
   368.60         15.7817
   368.74         15.8506
   368.88         15.9839
   369.02         16.1771
   369.16         16.4134
   369.30         16.6628
   369.44         16.8907
   369.58         17.0665
   369.72         17.1659
   369.86         17.1732
   370.00         17.0859
   370.14         16.9205
   370.28         16.7143
   370.42         16.5162
   370.56         16.3700
   370.70         16.2985
   370.84         16.2959
   370.98         16.3354
   371.12         16.3857
   371.26         16.4237
   371.40         16.4367
   371.54         16.4159
   371.68         16.3513
   371.82         16.2348
   371.96         16.0667
   372.10         15.8551
   372.24         15.6102
   372.38         15.3386
   372.52         15.0480
   372.66         14.7514
   372.80         14.4655
   372.94         14.2060
   373.08         13.9814
   373.22         13.7892
   373.36         13.6192
   373.50         13.4623
   373.64         13.3177
   373.78         13.1914
   373.92         13.0917
   374.06         13.0280
   374.20         13.0100
   374.34         13.0469
   374.48         13.1448
   374.62         13.2981
   374.76         13.4874
   374.90         13.6911
   375.04         13.8983
   375.18         14.1104
   375.32         14.3316
   375.46         14.5600
   375.60         14.7827
   375.74         14.9805
   375.88         15.1380
   376.02         15.2523
   376.16         15.3353
   376.30         15.4105
   376.44         15.5062
   376.58         15.6504
   376.72         15.8655
   376.86         16.1613
   377.00         16.5314
   377.14         16.9559
   377.28         17.4057
   377.42         17.8496
   377.56         18.2569
   377.70         18.5967
   377.84         18.8389
   377.98         18.9604
   378.12         18.9491
   378.26         18.8041
   378.40         18.5343
   378.54         18.1563
   378.68         17.6919
   378.82         17.1684
   378.96         16.6197
   379.10         16.0880
   379.24         15.6222
   379.38         15.2669
   379.52         15.0505
   379.66         14.9810
   379.80         15.0484
   379.94         15.2281
   380.08         15.4869
   380.22         15.7870
   380.36         16.0879
   380.50         16.3489
   380.64         16.5331
   380.78         16.6095
   380.92         16.5534
   381.06         16.3532
   381.20         16.0155
   381.34         15.5603
   381.48         15.0156
   381.62         14.4153
   381.76         13.7949
   381.90         13.1853
   382.04         12.6075
   382.18         12.0753
   382.32         11.6001
   382.46         11.1914
   382.60         10.8535
   382.74         10.5831
   382.88         10.3692
   383.02         10.2019
   383.16         10.0810
   383.30         10.0143
   383.44         10.0094
   383.58         10.0684
   383.72         10.1884
   383.86         10.3587
   384.00         10.5602
   384.14         10.7726
   384.28         10.9785
   384.42         11.1628
   384.56         11.3107
   384.70         11.4074
   384.84         11.4403
   384.98         11.4056
   385.12         11.3126
   385.26         11.1803
   385.40         11.0312
   385.54         10.8881
   385.68         10.7697
   385.82         10.6854
   385.96         10.6324
   386.10         10.6008
   386.24         10.5824
   386.38         10.5750
   386.52         10.5791
   386.66         10.5952
   386.80         10.6226
   386.94         10.6572
   387.08         10.6955
   387.22         10.7402
   387.36         10.8014
   387.50         10.8937
   387.64         11.0332
   387.78         11.2334
   387.92         11.5018
   388.06         11.8414
   388.20         12.2521
   388.34         12.7297
   388.48         13.2661
   388.62         13.8515
   388.76         14.4753
   388.90         15.1222
   389.04         15.7679
   389.18         16.3815
   389.32         16.9322
   389.46         17.3960
   389.60         17.7587
   389.74         18.0205
   389.88         18.1940
   390.02         18.2968
   390.16         18.3475
   390.30         18.3665
   390.44         18.3748
   390.58         18.3903
   390.72         18.4211
   390.86         18.4614
   391.00         18.4930
   391.14         18.4942
   391.28         18.4466
   391.42         18.3332
   391.56         18.1347
   391.70         17.8306
   391.84         17.4029
   391.98         16.8391
   392.12         16.1347
   392.26         15.2969
   392.40         14.3475
   392.54         13.3225
   392.68         12.2694
   392.82         11.2450
   392.96         10.3099
   393.10         9.5211
   393.24         8.9248
   393.38         8.5557
   393.52         8.4383
   393.66         8.5856
   393.80         8.9952
   393.94         9.6447
   394.08         10.4899
   394.22         11.4716
   394.36         12.5258
   394.50         13.5913
   394.64         14.6127
   394.78         15.5438
   394.92         16.3462
   395.06         16.9870
   395.20         17.4362
   395.34         17.6674
   395.48         17.6578
   395.62         17.3927
   395.76         16.8713
   395.90         16.1152
   396.04         15.1729
   396.18         14.1165
   396.32         13.0332
   396.46         12.0183
   396.60         11.1672
   396.74         10.5661
   396.88         10.2828
   397.02         10.3564
   397.16         10.7911
   397.30         11.5566
   397.44         12.5953
   397.58         13.8298
   397.72         15.1729
   397.86         16.5381
   398.00         17.8488
   398.14         19.0452
   398.28         20.0879
   398.42         20.9577
   398.56         21.6534
   398.70         22.1908
   398.84         22.6001
   398.98         22.9185
   399.12         23.1810
   399.26         23.4108
   399.40         23.6172
   399.54         23.8023
   399.68         23.9677
   399.82         24.1183
   399.96         24.2619
   400.10         24.4069
   400.24         24.5597
   400.38         24.7232
   400.52         24.8973
   400.66         25.0807
   400.80         25.2713
   400.94         25.4652
   401.08         25.6573
   401.22         25.8426
   401.36         26.0182
   401.50         26.1837
   401.64         26.3355
   401.78         26.4632
   401.92         26.5518
   402.06         26.5909
   402.20         26.5801
   402.34         26.5282
   402.48         26.4501
   402.62         26.3640
   402.76         26.2891
   402.90         26.2406
   403.04         26.2260
   403.18         26.2411
   403.32         26.2701
   403.46         26.2920
   403.60         26.2910
   403.74         26.2623
   403.88         26.2111
   404.02         26.1492
   404.16         26.0849
   404.30         26.0168
   404.44         25.9378
   404.58         25.8423
   404.72         25.7324
   404.86         25.6186
   405.00         25.5119
   405.14         25.4152
   405.28         25.3216
   405.42         25.2202
   405.56         25.1021
   405.70         24.9676
   405.84         24.8265
   405.98         24.6952
   406.12         24.5964
   406.26         24.5519
   406.40         24.5676
   406.54         24.6296
   406.68         24.7141
   406.82         24.8005
   406.96         24.8814
   407.10         24.9607
   407.24         25.0446
   407.38         25.1409
   407.52         25.2574
   407.66         25.4022
   407.80         25.5849
   407.94         25.8141
   408.08         26.0945
   408.22         26.4223
   408.36         26.7812
   408.50         27.1405
   408.64         27.4621
   408.78         27.7087
   408.92         27.8457
   409.06         27.8481
   409.20         27.7123
   409.34         27.4613
   409.48         27.1333
   409.62         26.7692
   409.76         26.4037
   409.90         26.0672
   410.04         25.7899
   410.18         25.6005
   410.32         25.5195
   410.46         25.5526
   410.60         25.6871
   410.74         25.8978
   410.88         26.1532
   411.02         26.4191
   411.16         26.6635
   411.30         26.8618
   411.44         26.9979
   411.58         27.0652
   411.72         27.0681
   411.86         27.0175
   412.00         26.9235
   412.14         26.7918
   412.28         26.6277
   412.42         26.4408
   412.56         26.2460
   412.70         26.0628
   412.84         25.9107
   412.98         25.7983
   413.12         25.7198
   413.26         25.6623
   413.40         25.6152
   413.54         25.5744
   413.68         25.5380
   413.82         25.5015
   413.96         25.4587
   414.10         25.4036
   414.24         25.3303
   414.38         25.2351
   414.52         25.1186
   414.66         24.9885
   414.80         24.8606
   414.94         24.7542
   415.08         24.6874
   415.22         24.6723
   415.36         24.7113
   415.50         24.7956
   415.64         24.9079
   415.78         25.0326
   415.92         25.1591
   416.06         25.2765
   416.20         25.3682
   416.34         25.4139
   416.48         25.3969
   416.62         25.3093
   416.76         25.1532
   416.90         24.9397
   417.04         24.6875
   417.18         24.4218
   417.32         24.1715
   417.46         23.9629
   417.60         23.8149
   417.74         23.7375
   417.88         23.7322
   418.02         23.7911
   418.16         23.9003
   418.30         24.0433
   418.44         24.2001
   418.58         24.3454
   418.72         24.4549
   418.86         24.5134
   419.00         24.5167
   419.14         24.4686
   419.28         24.3798
   419.42         24.2666
   419.56         24.1504
   419.70         24.0548
   419.84         24.0021
   419.98         24.0090
   420.12         24.0823
   420.26         24.2177
   420.40         24.4018
   420.54         24.6170
   420.68         24.8478
   420.82         25.0838
   420.96         25.3189
   421.10         25.5470
   421.24         25.7560
   421.38         25.9271
   421.52         26.0387
   421.66         26.0756
   421.80         26.0409
   421.94         25.9555
   422.08         25.8474
   422.22         25.7422
   422.36         25.6558
   422.50         25.5948
   422.64         25.5603
   422.78         25.5525
   422.92         25.5734
   423.06         25.6291
   423.20         25.7289
   423.34         25.8797
   423.48         26.0762
   423.62         26.2966
   423.76         26.5071
   423.90         26.6740
   424.04         26.7772
   424.18         26.8176
   424.32         26.8115
   424.46         26.7783
   424.60         26.7282
   424.74         26.6586
   424.88         26.5592
   425.02         26.4237
   425.16         26.2614
   425.30         26.0961
   425.44         25.9556
   425.58         25.8624
   425.72         25.8268
   425.86         25.8425
   426.00         25.8874
   426.14         25.9286
   426.28         25.9352
   426.42         25.8909
   426.56         25.7966
   426.70         25.6650
   426.84         25.5122
   426.98         25.3518
   427.12         25.1964
   427.26         25.0569
   427.40         24.9396
   427.54         24.8489
   427.68         24.7884
   427.82         24.7557
   427.96         24.7396
   428.10         24.7222
   428.24         24.6843
   428.38         24.6092
   428.52         24.4836
   428.66         24.2986
   428.80         24.0498
   428.94         23.7380
   429.08         23.3670
   429.22         22.9419
   429.36         22.4677
   429.50         21.9494
   429.64         21.3934
   429.78         20.8102
   429.92         20.2152
   430.06         19.6322
   430.20         19.0977
   430.34         18.6610
   430.48         18.3814
   430.62         18.3195
   430.76         18.5201
   430.90         18.9987
   431.04         19.7360
   431.18         20.6774
   431.32         21.7404
   431.46         22.8333
   431.60         23.8767
   431.74         24.8141
   431.88         25.6116
   432.02         26.2526
   432.16         26.7367
   432.30         27.0821
   432.44         27.3221
   432.58         27.4934
   432.72         27.6251
   432.86         27.7336
   433.00         27.8246
   433.14         27.8979
   433.28         27.9480
   433.42         27.9663
   433.56         27.9471
   433.70         27.8913
   433.84         27.8079
   433.98         27.7146
   434.12         27.6357
   434.26         27.5976
   434.40         27.6199
   434.54         27.7077
   434.68         27.8534
   434.82         28.0419
   434.96         28.2535
   435.10         28.4661
   435.24         28.6623
   435.38         28.8383
   435.52         29.0039
   435.66         29.1749
   435.80         29.3655
   435.94         29.5797
   436.08         29.8079
   436.22         30.0255
   436.36         30.1997
   436.50         30.3009
   436.64         30.3143
   436.78         30.2425
   436.92         30.1000
   437.06         29.9009
   437.20         29.6480
   437.34         29.3362
   437.48         28.9662
   437.62         28.5518
   437.76         28.1163
   437.90         27.6845
   438.04         27.2781
   438.18         26.9147
   438.32         26.6114
   438.46         26.3884
   438.60         26.2664
   438.74         26.2582
   438.88         26.3634
   439.02         26.5720
   439.16         26.8648
   439.30         27.2105
   439.44         27.5652
   439.58         27.8824
   439.72         28.1269
   439.86         28.2833
   440.00         28.3638
   440.14         28.4017
   440.28         28.4308
   440.42         28.4714
   440.56         28.5349
   440.70         28.6326
   440.84         28.7762
   440.98         28.9713
   441.12         29.2115
   441.26         29.4791
   441.40         29.7489
   441.54         29.9954
   441.68         30.2007
   441.82         30.3556
   441.96         30.4578
   442.10         30.5108
   442.24         30.5225
   442.38         30.5009
   442.52         30.4568
   442.66         30.4059
   442.80         30.3635
   442.94         30.3382
   443.08         30.3327
   443.22         30.3498
   443.36         30.3941
   443.50         30.4671
   443.64         30.5654
   443.78         30.6829
   443.92         30.8152
   444.06         30.9576
   444.20         31.0997
   444.34         31.2236
   444.48         31.3082
   444.62         31.3354
   444.76         31.2944
   444.90         31.1820
   445.04         31.0037
   445.18         30.7761
   445.32         30.5225
   445.46         30.2650
   445.60         30.0225
   445.74         29.8131
   445.88         29.6578
   446.02         29.5779
   446.16         29.5892
   446.30         29.6992
   446.44         29.9057
   446.58         30.1977
   446.72         30.5540
   446.86         30.9427
   447.00         31.3284
   447.14         31.6819
   447.28         31.9861
   447.42         32.2326
   447.56         32.4214
   447.70         32.5560
   447.84         32.6400
   447.98         32.6772
   448.12         32.6715
   448.26         32.6278
   448.40         32.5538
   448.54         32.4620
   448.68         32.3691
   448.82         32.2904
   448.96         32.2359
   449.10         32.2135
   449.24         32.2323
   449.38         32.3000
   449.52         32.4201
   449.66         32.5936
   449.80         32.8206
   449.94         33.0947
   450.08         33.3971
   450.22         33.6973
   450.36         33.9606
   450.50         34.1602
   450.64         34.2817
   450.78         34.3205
   450.92         34.2795
   451.06         34.1684
   451.20         34.0019
   451.34         33.7962
   451.48         33.5624
   451.62         33.3049
   451.76         33.0272
   451.90         32.7341
   452.04         32.4267
   452.18         32.1041
   452.32         31.7681
   452.46         31.4292
   452.60         31.1057
   452.74         30.8193
   452.88         30.5915
   453.02         30.4401
   453.16         30.3752
   453.30         30.3973
   453.44         30.4952
   453.58         30.6470
   453.72         30.8245
   453.86         30.9991
   454.00         31.1470
   454.14         31.2513
   454.28         31.3053
   454.42         31.3177
   454.56         31.3085
   454.70         31.3001
   454.84         31.3149
   454.98         31.3739
   455.12         31.4918
   455.26         31.6696
   455.40         31.8955
   455.54         32.1509
   455.68         32.4171
   455.82         32.6777
   455.96         32.9192
   456.10         33.1307
   456.24         33.3064
   456.38         33.4482
   456.52         33.5637
   456.66         33.6599
   456.80         33.7365
   456.94         33.7887
