# File HD83140
# Wavelength [nm]    Normalized Amplitude
   349.70         10.1831
   349.84         10.0787
   349.98         9.9867
   350.12         9.9075
   350.26         9.8419
   350.40         9.7900
   350.54         9.7501
   350.68         9.7211
   350.82         9.7032
   350.96         9.6952
   351.10         9.6930
   351.24         9.6952
   351.38         9.7032
   351.52         9.7211
   351.66         9.7501
   351.80         9.7900
   351.94         9.8419
   352.08         9.9075
   352.22         9.9867
   352.36         10.0787
   352.50         10.1831
   352.64         10.2973
   352.78         10.4167
   352.92         10.5381
   353.06         10.6593
   353.20         10.7786
   353.34         10.8937
   353.48         11.0013
   353.62         11.0971
   353.76         11.1805
   353.90         11.2531
   354.04         11.3135
   354.18         11.3571
   354.32         11.3796
   354.46         11.3809
   354.60         11.3635
   354.74         11.3291
   354.88         11.2811
   355.02         11.2254
   355.16         11.1670
   355.30         11.1060
   355.44         11.0405
   355.58         10.9695
   355.72         10.8912
   355.86         10.8014
   356.00         10.6965
   356.14         10.5749
   356.28         10.4374
   356.42         10.2897
   356.56         10.1378
   356.70         9.9873
   356.84         9.8470
   356.98         9.7279
   357.12         9.6370
   357.26         9.5728
   357.40         9.5275
   357.54         9.4912
   357.68         9.4552
   357.82         9.4132
   357.96         9.3627
   358.10         9.3081
   358.24         9.2588
   358.38         9.2245
   358.52         9.2126
   358.66         9.2287
   358.80         9.2760
   358.94         9.3538
   359.08         9.4565
   359.22         9.5733
   359.36         9.6918
   359.50         9.8014
   359.64         9.8929
   359.78         9.9586
   359.92         9.9931
   360.06         9.9950
   360.20         9.9713
   360.34         9.9339
   360.48         9.8936
   360.62         9.8570
   360.76         9.8281
   360.90         9.8090
   361.04         9.8011
   361.18         9.8065
   361.32         9.8288
   361.46         9.8715
   361.60         9.9355
   361.74         10.0175
   361.88         10.1093
   362.02         10.1991
   362.16         10.2756
   362.30         10.3297
   362.44         10.3555
   362.58         10.3519
   362.72         10.3245
   362.86         10.2832
   363.00         10.2361
   363.14         10.1867
   363.28         10.1384
   363.42         10.0972
   363.56         10.0693
   363.70         10.0591
   363.84         10.0671
   363.98         10.0914
   364.12         10.1277
   364.26         10.1720
   364.40         10.2216
   364.54         10.2766
   364.68         10.3412
   364.82         10.4222
   364.96         10.5244
   365.10         10.6499
   365.24         10.7964
   365.38         10.9572
   365.52         11.1220
   365.66         11.2790
   365.80         11.4183
   365.94         11.5344
   366.08         11.6253
   366.22         11.6909
   366.36         11.7325
   366.50         11.7525
   366.64         11.7532
   366.78         11.7362
   366.92         11.7025
   367.06         11.6537
   367.20         11.5919
   367.34         11.5193
   367.48         11.4378
   367.62         11.3508
   367.76         11.2640
   367.90         11.1849
   368.04         11.1222
   368.18         11.0843
   368.32         11.0777
   368.46         11.1049
   368.60         11.1660
   368.74         11.2598
   368.88         11.3835
   369.02         11.5310
   369.16         11.6897
   369.30         11.8434
   369.44         11.9762
   369.58         12.0768
   369.72         12.1386
   369.86         12.1596
   370.00         12.1425
   370.14         12.0974
   370.28         12.0419
   370.42         11.9953
   370.56         11.9753
   370.70         11.9937
   370.84         12.0506
   370.98         12.1343
   371.12         12.2293
   371.26         12.3243
   371.40         12.4116
   371.54         12.4841
   371.68         12.5349
   371.82         12.5584
   371.96         12.5526
   372.10         12.5182
   372.24         12.4566
   372.38         12.3692
   372.52         12.2608
   372.66         12.1428
   372.80         12.0320
   372.94         11.9453
   373.08         11.8960
   373.22         11.8909
   373.36         11.9266
   373.50         11.9904
   373.64         12.0673
   373.78         12.1454
   373.92         12.2157
   374.06         12.2731
   374.20         12.3184
   374.34         12.3574
   374.48         12.3956
   374.62         12.4357
   374.76         12.4800
   374.90         12.5335
   375.04         12.6074
   375.18         12.7167
   375.32         12.8715
   375.46         13.0690
   375.60         13.2942
   375.74         13.5211
   375.88         13.7181
   376.02         13.8573
   376.16         13.9255
   376.30         13.9290
   376.44         13.8904
   376.58         13.8430
   376.72         13.8236
   376.86         13.8637
   377.00         13.9816
   377.14         14.1815
   377.28         14.4583
   377.42         14.8004
   377.56         15.1900
   377.70         15.6025
   377.84         16.0080
   377.98         16.3734
   378.12         16.6663
   378.26         16.8580
   378.40         16.9276
   378.54         16.8660
   378.68         16.6803
   378.82         16.3935
   378.96         16.0410
   379.10         15.6673
   379.24         15.3215
   379.38         15.0506
   379.52         14.8921
   379.66         14.8683
   379.80         14.9890
   379.94         15.2506
   380.08         15.6337
   380.22         16.1053
   380.36         16.6262
   380.50         17.1569
   380.64         17.6595
   380.78         18.0974
   380.92         18.4404
   381.06         18.6725
   381.20         18.7918
   381.34         18.8069
   381.48         18.7315
   381.62         18.5805
   381.76         18.3659
   381.90         18.0940
   382.04         17.7642
   382.18         17.3710
   382.32         16.9092
   382.46         16.3800
   382.60         15.7916
   382.74         15.1633
   382.88         14.5287
   383.02         13.9325
   383.16         13.4218
   383.30         13.0382
   383.44         12.8127
   383.58         12.7664
   383.72         12.9063
   383.86         13.2230
   384.00         13.6931
   384.14         14.2848
   384.28         14.9592
   384.42         15.6715
   384.56         16.3748
   384.70         17.0251
   384.84         17.5892
   384.98         18.0506
   385.12         18.4099
   385.26         18.6800
   385.40         18.8797
   385.54         19.0298
   385.68         19.1499
   385.82         19.2535
   385.96         19.3460
   386.10         19.4264
   386.24         19.4909
   386.38         19.5335
   386.52         19.5474
   386.66         19.5265
   386.80         19.4664
   386.94         19.3645
   387.08         19.2186
   387.22         19.0273
   387.36         18.7874
   387.50         18.4940
   387.64         18.1419
   387.78         17.7295
   387.92         17.2613
   388.06         16.7512
   388.20         16.2227
   388.34         15.7044
   388.48         15.2264
   388.62         14.8187
   388.76         14.5112
   388.90         14.3290
   389.04         14.2849
   389.18         14.3775
   389.32         14.5942
   389.46         14.9123
   389.60         15.3011
   389.74         15.7264
   389.88         16.1561
   390.02         16.5636
   390.16         16.9310
   390.30         17.2512
   390.44         17.5253
   390.58         17.7569
   390.72         17.9470
   390.86         18.0939
   391.00         18.1948
   391.14         18.2470
   391.28         18.2478
   391.42         18.1918
   391.56         18.0680
   391.70         17.8595
   391.84         17.5473
   391.98         17.1150
   392.12         16.5511
   392.26         15.8543
   392.40         15.0382
   392.54         14.1338
   392.68         13.1895
   392.82         12.2674
   392.96         11.4350
   393.10         10.7552
   393.24         10.2802
   393.38         10.0488
   393.52         10.0817
   393.66         10.3751
   393.80         10.9005
   393.94         11.6075
   394.08         12.4321
   394.22         13.3038
   394.36         14.1549
   394.50         14.9278
   394.64         15.5807
   394.78         16.0904
   394.92         16.4495
   395.06         16.6601
   395.20         16.7258
   395.34         16.6464
   395.48         16.4162
   395.62         16.0288
   395.76         15.4863
   395.90         14.8077
   396.04         14.0302
   396.18         13.2057
   396.32         12.3961
   396.46         11.6697
   396.60         11.0945
   396.74         10.7279
   396.88         10.6071
   397.02         10.7452
   397.16         11.1332
   397.30         11.7418
   397.44         12.5241
   397.58         13.4193
   397.72         14.3604
   397.86         15.2833
   398.00         16.1360
   398.14         16.8843
   398.28         17.5112
   398.42         18.0155
   398.56         18.4069
   398.70         18.7037
   398.84         18.9271
   398.98         19.0976
   399.12         19.2308
   399.26         19.3350
   399.40         19.4123
   399.54         19.4648
   399.68         19.4987
   399.82         19.5249
   399.96         19.5542
   400.10         19.5942
   400.24         19.6492
   400.38         19.7217
   400.52         19.8130
   400.66         19.9229
   400.80         20.0494
   400.94         20.1876
   401.08         20.3320
   401.22         20.4771
   401.36         20.6187
   401.50         20.7518
   401.64         20.8684
   401.78         20.9574
   401.92         21.0096
   402.06         21.0225
   402.20         21.0012
   402.34         20.9543
   402.48         20.8920
   402.62         20.8255
   402.76         20.7666
   402.90         20.7275
   403.04         20.7158
   403.18         20.7313
   403.32         20.7674
   403.46         20.8159
   403.60         20.8692
   403.74         20.9205
   403.88         20.9648
   404.02         20.9981
   404.16         21.0152
   404.30         21.0089
   404.44         20.9747
   404.58         20.9157
   404.72         20.8415
   404.86         20.7638
   405.00         20.6906
   405.14         20.6242
   405.28         20.5627
   405.42         20.5033
   405.56         20.4428
   405.70         20.3811
   405.84         20.3215
   405.98         20.2705
   406.12         20.2349
   406.26         20.2159
   406.40         20.2061
   406.54         20.1925
   406.68         20.1642
   406.82         20.1166
   406.96         20.0518
   407.10         19.9765
   407.24         19.8985
   407.38         19.8255
   407.52         19.7644
   407.66         19.7215
   407.80         19.7024
   407.94         19.7108
   408.08         19.7462
   408.22         19.8014
   408.36         19.8631
   408.50         19.9094
   408.64         19.9115
   408.78         19.8383
   408.92         19.6615
   409.06         19.3659
   409.20         18.9585
   409.34         18.4678
   409.48         17.9337
   409.62         17.3997
   409.76         16.9097
   409.90         16.5067
   410.04         16.2294
   410.18         16.1062
   410.32         16.1491
   410.46         16.3522
   410.60         16.6926
   410.74         17.1356
   410.88         17.6398
   411.02         18.1610
   411.16         18.6567
   411.30         19.0924
   411.44         19.4461
   411.58         19.7110
   411.72         19.8935
   411.86         20.0076
   412.00         20.0683
   412.14         20.0900
   412.28         20.0889
   412.42         20.0817
   412.56         20.0842
   412.70         20.1101
   412.84         20.1686
   412.98         20.2604
   413.12         20.3785
   413.26         20.5135
   413.40         20.6570
   413.54         20.8018
   413.68         20.9401
   413.82         21.0629
   413.96         21.1620
   414.10         21.2299
   414.24         21.2601
   414.38         21.2491
   414.52         21.1990
   414.66         21.1186
   414.80         21.0218
   414.94         20.9234
   415.08         20.8372
   415.22         20.7753
   415.36         20.7459
   415.50         20.7503
   415.64         20.7840
   415.78         20.8410
   415.92         20.9125
   416.06         20.9841
   416.20         21.0368
   416.34         21.0524
   416.48         21.0173
   416.62         20.9248
   416.76         20.7765
   416.90         20.5825
   417.04         20.3609
   417.18         20.1342
   417.32         19.9247
   417.46         19.7501
   417.60         19.6228
   417.74         19.5504
   417.88         19.5355
   418.02         19.5743
   418.16         19.6582
   418.30         19.7743
   418.44         19.9056
   418.58         20.0319
   418.72         20.1363
   418.86         20.2095
   419.00         20.2493
   419.14         20.2576
   419.28         20.2391
   419.42         20.2019
   419.56         20.1557
   419.70         20.1103
   419.84         20.0755
   419.98         20.0619
   420.12         20.0784
   420.26         20.1297
   420.40         20.2138
   420.54         20.3236
   420.68         20.4487
   420.82         20.5773
   420.96         20.6978
   421.10         20.7982
   421.24         20.8658
   421.38         20.8889
   421.52         20.8603
   421.66         20.7806
   421.80         20.6599
   421.94         20.5138
   422.08         20.3590
   422.22         20.2097
   422.36         20.0771
   422.50         19.9699
   422.64         19.8938
   422.78         19.8504
   422.92         19.8386
   423.06         19.8575
   423.20         19.9054
   423.34         19.9782
   423.48         20.0664
   423.62         20.1565
   423.76         20.2345
   423.90         20.2905
   424.04         20.3227
   424.18         20.3373
   424.32         20.3442
   424.46         20.3504
   424.60         20.3565
   424.74         20.3580
   424.88         20.3496
   425.02         20.3295
   425.16         20.3015
   425.30         20.2729
   425.44         20.2502
   425.58         20.2362
   425.72         20.2288
   425.86         20.2215
   426.00         20.2053
   426.14         20.1730
   426.28         20.1231
   426.42         20.0607
   426.56         19.9951
   426.70         19.9354
   426.84         19.8878
   426.98         19.8555
   427.12         19.8378
   427.26         19.8311
   427.40         19.8305
   427.54         19.8313
   427.68         19.8275
   427.82         19.8111
   427.96         19.7744
   428.10         19.7123
   428.24         19.6229
   428.38         19.5080
   428.52         19.3731
   428.66         19.2246
   428.80         19.0680
   428.94         18.9074
   429.08         18.7452
   429.22         18.5832
   429.36         18.4236
   429.50         18.2672
   429.64         18.1155
   429.78         17.9728
   429.92         17.8468
   430.06         17.7457
   430.20         17.6777
   430.34         17.6502
   430.48         17.6717
   430.62         17.7486
   430.76         17.8800
   430.90         18.0552
   431.04         18.2572
   431.18         18.4654
   431.32         18.6574
   431.46         18.8150
   431.60         18.9296
   431.74         19.0016
   431.88         19.0365
   432.02         19.0389
   432.16         19.0114
   432.30         18.9576
   432.44         18.8779
   432.58         18.7655
   432.72         18.6055
   432.86         18.3811
   433.00         18.0821
   433.14         17.7106
   433.28         17.2820
   433.42         16.8234
   433.56         16.3707
   433.70         15.9627
   433.84         15.6351
   433.98         15.4171
   434.12         15.3302
   434.26         15.3869
   434.40         15.5868
   434.54         15.9143
   434.68         16.3427
   434.82         16.8383
   434.96         17.3651
   435.10         17.8884
   435.24         18.3801
   435.38         18.8239
   435.52         19.2149
   435.66         19.5566
   435.80         19.8560
   435.94         20.1185
   436.08         20.3460
   436.22         20.5339
   436.36         20.6747
   436.50         20.7653
   436.64         20.8113
   436.78         20.8252
   436.92         20.8195
   437.06         20.8011
   437.20         20.7698
   437.34         20.7222
   437.48         20.6566
   437.62         20.5742
   437.76         20.4783
   437.90         20.3733
   438.04         20.2640
   438.18         20.1545
   438.32         20.0491
   438.46         19.9542
   438.60         19.8765
   438.74         19.8191
   438.88         19.7822
   439.02         19.7655
   439.16         19.7694
   439.30         19.7905
   439.44         19.8201
   439.58         19.8475
   439.72         19.8657
   439.86         19.8754
   440.00         19.8837
   440.14         19.9004
   440.28         19.9312
   440.42         19.9756
   440.56         20.0301
   440.70         20.0921
   440.84         20.1615
   440.98         20.2393
   441.12         20.3251
   441.26         20.4162
   441.40         20.5084
   441.54         20.5974
   441.68         20.6796
   441.82         20.7511
   441.96         20.8058
   442.10         20.8365
   442.24         20.8378
   442.38         20.8082
   442.52         20.7510
   442.66         20.6731
   442.80         20.5835
   442.94         20.4896
   443.08         20.3979
   443.22         20.3154
   443.36         20.2487
   443.50         20.2009
   443.64         20.1710
   443.78         20.1555
   443.92         20.1513
   444.06         20.1562
   444.20         20.1649
   444.34         20.1696
   444.48         20.1623
   444.62         20.1376
   444.76         20.0942
   444.90         20.0348
   445.04         19.9645
   445.18         19.8894
   445.32         19.8141
   445.46         19.7405
   445.60         19.6682
   445.74         19.5995
   445.88         19.5420
   446.02         19.5052
   446.16         19.4972
   446.30         19.5234
   446.44         19.5861
   446.58         19.6828
   446.72         19.8037
   446.86         19.9328
   447.00         20.0555
   447.14         20.1630
   447.28         20.2511
   447.42         20.3170
   447.56         20.3592
   447.70         20.3769
   447.84         20.3698
   447.98         20.3404
   448.12         20.2936
   448.26         20.2361
   448.40         20.1779
   448.54         20.1288
   448.68         20.0960
   448.82         20.0830
   448.96         20.0902
   449.10         20.1163
   449.24         20.1592
   449.38         20.2172
   449.52         20.2890
   449.66         20.3743
   449.80         20.4721
   449.94         20.5791
   450.08         20.6882
   450.22         20.7900
   450.36         20.8753
   450.50         20.9375
   450.64         20.9734
   450.78         20.9814
   450.92         20.9601
   451.06         20.9090
   451.20         20.8302
   451.34         20.7273
   451.48         20.6043
   451.62         20.4649
   451.76         20.3139
   451.90         20.1566
   452.04         19.9971
   452.18         19.8385
   452.32         19.6869
   452.46         19.5518
   452.60         19.4421
   452.74         19.3642
   452.88         19.3229
   453.02         19.3202
   453.16         19.3541
   453.30         19.4189
   453.44         19.5046
   453.58         19.5965
   453.72         19.6790
   453.86         19.7391
   454.00         19.7679
   454.14         19.7592
   454.28         19.7114
   454.42         19.6299
   454.56         19.5271
   454.70         19.4194
   454.84         19.3255
   454.98         19.2630
   455.12         19.2423
   455.26         19.2654
   455.40         19.3305
   455.54         19.4325
   455.68         19.5628
   455.82         19.7104
   455.96         19.8640
   456.10         20.0143
   456.24         20.1557
   456.38         20.2866
   456.52         20.4078
   456.66         20.5173
   456.80         20.6087
   456.94         20.6755
   457.08         20.7141
   457.22         20.7231
