# File HD842
# Wavelength [nm]    Normalized Amplitude
   349.70         51.2144
   349.84         51.0976
   349.98         51.0475
   350.12         51.0561
   350.26         51.1113
   350.40         51.1967
   350.54         51.2966
   350.68         51.3915
   350.82         51.4626
   350.96         51.5031
   351.10         51.5157
   351.24         51.5031
   351.38         51.4626
   351.52         51.3915
   351.66         51.2966
   351.80         51.1967
   351.94         51.1113
   352.08         51.0561
   352.22         51.0475
   352.36         51.0976
   352.50         51.2144
   352.64         51.4057
   352.78         51.6633
   352.92         51.9630
   353.06         52.2831
   353.20         52.6045
   353.34         52.9042
   353.48         53.1651
   353.62         53.3781
   353.76         53.5410
   353.90         53.6601
   354.04         53.7463
   354.18         53.8115
   354.32         53.8656
   354.46         53.9071
   354.60         53.9202
   354.74         53.8793
   354.88         53.7573
   355.02         53.5366
   355.16         53.2071
   355.30         52.7564
   355.44         52.1765
   355.58         51.4820
   355.72         50.7088
   355.86         49.8976
   356.00         49.0853
   356.14         48.3034
   356.28         47.5767
   356.42         46.9288
   356.56         46.3761
   356.70         45.9190
   356.84         45.5535
   356.98         45.2822
   357.12         45.1026
   357.26         44.9965
   357.40         44.9382
   357.54         44.9101
   357.68         44.9080
   357.82         44.9316
   357.96         44.9800
   358.10         45.0607
   358.24         45.1920
   358.38         45.3872
   358.52         45.6439
   358.66         45.9491
   358.80         46.2867
   358.94         46.6348
   359.08         46.9650
   359.22         47.2447
   359.36         47.4493
   359.50         47.5678
   359.64         47.5929
   359.78         47.5126
   359.92         47.3203
   360.06         47.0299
   360.20         46.6761
   360.34         46.3013
   360.48         45.9389
   360.62         45.6094
   360.76         45.3265
   360.90         45.0973
   361.04         44.9196
   361.18         44.7912
   361.32         44.7191
   361.46         44.7137
   361.60         44.7804
   361.74         44.9177
   361.88         45.1177
   362.02         45.3678
   362.16         45.6527
   362.30         45.9597
   362.44         46.2801
   362.58         46.6076
   362.72         46.9395
   362.86         47.2724
   363.00         47.5964
   363.14         47.9001
   363.28         48.1817
   363.42         48.4469
   363.56         48.6996
   363.70         48.9439
   363.84         49.1848
   363.98         49.4233
   364.12         49.6550
   364.26         49.8716
   364.40         50.0645
   364.54         50.2323
   364.68         50.3802
   364.82         50.5149
   364.96         50.6386
   365.10         50.7432
   365.24         50.8188
   365.38         50.8713
   365.52         50.9284
   365.66         51.0280
   365.80         51.2011
   365.94         51.4604
   366.08         51.7980
   366.22         52.1933
   366.36         52.6156
   366.50         53.0240
   366.64         53.3782
   366.78         53.6518
   366.92         53.8296
   367.06         53.9039
   367.20         53.8761
   367.34         53.7595
   367.48         53.5870
   367.62         53.4125
   367.76         53.2974
   367.90         53.3017
   368.04         53.4763
   368.18         53.8523
   368.32         54.4250
   368.46         55.1560
   368.60         56.0023
   368.74         56.9379
   368.88         57.9468
   369.02         59.0026
   369.16         60.0603
   369.30         61.0730
   369.44         62.0089
   369.58         62.8480
   369.72         63.5683
   369.86         64.1379
   370.00         64.5298
   370.14         64.7547
   370.28         64.8757
   370.42         64.9950
   370.56         65.2216
   370.70         65.6297
   370.84         66.2312
   370.98         66.9801
   371.12         67.8233
   371.26         68.7531
   371.40         69.7966
   371.54         70.9766
   371.68         72.2884
   371.82         73.7009
   371.96         75.1596
   372.10         76.5733
   372.24         77.8125
   372.38         78.7521
   372.52         79.3411
   372.66         79.6461
   372.80         79.8267
   372.94         80.0583
   373.08         80.4654
   373.22         81.0944
   373.36         81.9105
   373.50         82.8192
   373.64         83.7094
   373.78         84.4842
   373.92         85.0656
   374.06         85.3968
   374.20         85.4611
   374.34         85.2913
   374.48         84.9574
   374.62         84.5586
   374.76         84.2288
   374.90         84.1454
   375.04         84.5120
   375.18         85.4900
   375.32         87.1197
   375.46         89.2796
   375.60         91.6925
   375.74         93.9892
   375.88         95.7975
   376.02         96.8330
   376.16         96.9813
   376.30         96.3352
   376.44         95.1765
   376.58         93.9230
   376.72         93.0458
   376.86         92.9738
   377.00         94.0125
   377.14         96.3058
   377.28         99.8439
   377.42         104.4842
   377.56         109.9581
   377.70         115.8843
   377.84         121.8025
   377.98         127.2158
   378.12         131.6372
   378.26         134.6366
   378.40         135.8997
   378.54         135.2839
   378.68         132.8620
   378.82         128.9284
   378.96         123.9561
   379.10         118.5242
   379.24         113.2356
   379.38         108.6445
   379.52         105.2170
   379.66         103.3264
   379.80         103.2269
   379.94         104.9955
   380.08         108.5052
   380.22         113.4570
   380.36         119.4518
   380.50         126.0420
   380.64         132.7434
   380.78         139.0739
   380.92         144.6224
   381.06         149.1099
   381.20         152.3930
   381.34         154.4356
   381.48         155.2677
   381.62         154.9316
   381.76         153.4636
   381.90         150.8992
   382.04         147.2781
   382.18         142.6613
   382.32         137.1596
   382.46         130.9324
   382.60         124.2018
   382.74         117.2933
   382.88         110.6403
   383.02         104.7302
   383.16         100.0198
   383.30         96.8733
   383.44         95.5356
   383.58         96.1207
   383.72         98.5903
   383.86         102.7553
   384.00         108.3369
   384.14         114.9971
   384.28         122.3303
   384.42         129.8819
   384.56         137.2124
   384.70         143.9741
   384.84         149.9473
   384.98         155.0401
   385.12         159.2618
   385.26         162.6850
   385.40         165.4140
   385.54         167.5738
   385.68         169.2925
   385.82         170.6676
   385.96         171.7405
   386.10         172.4993
   386.24         172.9196
   386.38         172.9831
   386.52         172.6706
   386.66         171.9480
   386.80         170.7551
   386.94         169.0105
   387.08         166.6285
   387.22         163.5441
   387.36         159.6983
   387.50         155.0155
   387.64         149.4478
   387.78         143.0443
   387.92         135.9769
   388.06         128.5374
   388.20         121.1147
   388.34         114.1438
   388.48         108.0593
   388.62         103.2622
   388.76         100.0913
   388.90         98.7874
   389.04         99.4364
   389.18         101.9416
   389.32         106.0510
   389.46         111.4071
   389.60         117.5973
   389.74         124.2161
   389.88         130.8953
   390.02         137.3018
   390.16         143.1620
   390.30         148.3029
   390.44         152.6604
   390.58         156.2439
   390.72         159.1033
   390.86         161.3117
   391.00         162.9561
   391.14         164.1313
   391.28         164.9199
   391.42         165.3606
   391.56         165.4199
   391.70         164.9709
   391.84         163.7943
   391.98         161.6169
   392.12         158.1905
   392.26         153.3871
   392.40         147.2679
   392.54         140.0992
   392.68         132.3408
   392.82         124.6101
   392.96         117.6055
   393.10         112.0050
   393.24         108.3660
   393.38         107.0488
   393.52         108.1686
   393.66         111.5807
   393.80         116.9008
   393.94         123.5537
   394.08         130.8508
   394.22         138.0768
   394.36         144.5733
   394.50         149.8238
   394.64         153.5311
   394.78         155.6454
   394.92         156.3044
   395.06         155.7167
   395.20         154.0489
   395.34         151.3555
   395.48         147.5804
   395.62         142.6261
   395.76         136.4493
   395.90         129.1424
   396.04         120.9647
   396.18         112.3355
   396.32         103.8033
   396.46         95.9827
   396.60         89.4722
   396.74         84.7790
   396.88         82.2560
   397.02         82.0749
   397.16         84.2378
   397.30         88.5827
   397.44         94.7758
   397.58         102.3293
   397.72         110.6675
   397.86         119.2074
   398.00         127.4379
   398.14         134.9898
   398.28         141.6602
   398.42         147.3821
   398.56         152.1788
   398.70         156.1277
   398.84         159.3264
   398.98         161.8607
   399.12         163.7924
   399.26         165.1621
   399.40         166.0112
   399.54         166.4132
   399.68         166.4847
   399.82         166.3663
   399.96         166.1884
   400.10         166.0512
   400.24         166.0299
   400.38         166.1880
   400.52         166.5734
   400.66         167.2032
   400.80         168.0534
   400.94         169.0594
   401.08         170.1320
   401.22         171.1848
   401.36         172.1513
   401.50         172.9789
   401.64         173.6165
   401.78         174.0136
   401.92         174.1275
   402.06         173.9442
   402.20         173.4946
   402.34         172.8409
   402.48         172.0664
   402.62         171.2706
   402.76         170.5483
   402.90         169.9833
   403.04         169.6427
   403.18         169.5528
   403.32         169.6905
   403.46         170.0019
   403.60         170.4252
   403.74         170.8982
   403.88         171.3625
   404.02         171.7605
   404.16         172.0246
   404.30         172.0832
   404.44         171.8933
   404.58         171.4750
   404.72         170.9123
   404.86         170.3171
   405.00         169.7831
   405.14         169.3602
   405.28         169.0545
   405.42         168.8432
   405.56         168.6975
   405.70         168.5880
   405.84         168.4701
   405.98         168.2911
   406.12         168.0145
   406.26         167.6186
   406.40         167.0764
   406.54         166.3528
   406.68         165.4295
   406.82         164.3344
   406.96         163.1376
   407.10         161.9234
   407.24         160.7619
   407.38         159.6874
   407.52         158.6976
   407.66         157.7709
   407.80         156.8791
   407.94         155.9869
   408.08         155.0370
   408.22         153.9394
   408.36         152.5701
   408.50         150.7756
   408.64         148.3976
   408.78         145.2940
   408.92         141.3473
   409.06         136.5089
   409.20         130.8616
   409.34         124.6453
   409.48         118.2234
   409.62         112.0185
   409.76         106.4530
   409.90         101.9114
   410.04         98.7221
   410.18         97.1364
   410.32         97.2944
   410.46         99.1907
   410.60         102.6632
   410.74         107.4124
   410.88         113.0539
   411.02         119.1652
   411.16         125.3259
   411.30         131.1657
   411.44         136.3956
   411.58         140.8373
   411.72         144.4341
   411.86         147.2259
   412.00         149.3036
   412.14         150.7791
   412.28         151.7817
   412.42         152.4548
   412.56         152.9492
   412.70         153.4143
   412.84         153.9686
   412.98         154.6645
   413.12         155.4859
   413.26         156.3807
   413.40         157.2960
   413.54         158.1862
   413.68         158.9982
   413.82         159.6773
   413.96         160.1827
   414.10         160.4881
   414.24         160.5878
   414.38         160.5021
   414.52         160.2798
   414.66         159.9932
   414.80         159.7122
   414.94         159.4867
   415.08         159.3365
   415.22         159.2602
   415.36         159.2564
   415.50         159.3168
   415.64         159.4227
   415.78         159.5561
   415.92         159.6928
   416.06         159.7849
   416.20         159.7620
   416.34         159.5546
   416.48         159.1104
   416.62         158.3955
   416.76         157.4060
   416.90         156.1829
   417.04         154.8085
   417.18         153.3863
   417.32         152.0210
   417.46         150.8096
   417.60         149.8402
   417.74         149.1876
   417.88         148.9105
   418.02         149.0347
   418.16         149.5343
   418.30         150.3349
   418.44         151.3179
   418.58         152.3354
   418.72         153.2490
   418.86         153.9631
   419.00         154.4240
   419.14         154.6049
   419.28         154.5078
   419.42         154.1735
   419.56         153.6756
   419.70         153.0962
   419.84         152.5121
   419.98         152.0028
   420.12         151.6457
   420.26         151.4878
   420.40         151.5332
   420.54         151.7557
   420.68         152.1091
   420.82         152.5342
   420.96         152.9646
   421.10         153.3306
   421.24         153.5721
   421.38         153.6452
   421.52         153.5269
   421.66         153.2256
   421.80         152.7877
   421.94         152.2784
   422.08         151.7506
   422.22         151.2372
   422.36         150.7526
   422.50         150.3075
   422.64         149.9180
   422.78         149.5966
   422.92         149.3510
   423.06         149.1936
   423.20         149.1408
   423.34         149.1969
   423.48         149.3394
   423.62         149.5228
   423.76         149.6896
   423.90         149.7886
   424.04         149.8080
   424.18         149.7788
   424.32         149.7449
   424.46         149.7289
   424.60         149.7164
   424.74         149.6768
   424.88         149.5974
   425.02         149.4931
   425.16         149.3983
   425.30         149.3579
   425.44         149.4169
   425.58         149.6012
   425.72         149.9033
   425.86         150.2796
   426.00         150.6619
   426.14         150.9790
   426.28         151.1758
   426.42         151.2279
   426.56         151.1476
   426.70         150.9728
   426.84         150.7392
   426.98         150.4626
   427.12         150.1444
   427.26         149.7874
   427.40         149.4057
   427.54         149.0253
   427.68         148.6626
   427.82         148.3067
   427.96         147.9325
   428.10         147.5094
   428.24         147.0056
   428.38         146.3984
   428.52         145.6794
   428.66         144.8541
   428.80         143.9397
   428.94         142.9631
   429.08         141.9615
   429.22         140.9735
   429.36         140.0311
   429.50         139.1554
   429.64         138.3583
   429.78         137.6623
   429.92         137.1040
   430.06         136.7025
   430.20         136.4450
   430.34         136.2981
   430.48         136.2414
   430.62         136.2757
   430.76         136.3898
   430.90         136.5449
   431.04         136.6860
   431.18         136.7546
   431.32         136.6952
   431.46         136.4739
   431.60         136.0938
   431.74         135.5794
   431.88         134.9406
   432.02         134.1573
   432.16         133.1861
   432.30         131.9645
   432.44         130.4041
   432.58         128.3789
   432.72         125.7430
   432.86         122.3879
   433.00         118.2989
   433.14         113.5832
   433.28         108.4531
   433.42         103.2002
   433.56         98.1800
   433.70         93.7717
   433.84         90.3125
   433.98         88.0590
   434.12         87.1825
   434.26         87.7629
   434.40         89.7663
   434.54         93.0416
   434.68         97.3486
   434.82         102.3777
   434.96         107.7775
   435.10         113.2078
   435.24         118.3922
   435.38         123.1498
   435.52         127.3939
   435.66         131.1131
   435.80         134.3418
   435.94         137.1198
   436.08         139.4715
   436.22         141.4007
   436.36         142.8947
   436.50         143.9543
   436.64         144.6318
   436.78         145.0299
   436.92         145.2552
   437.06         145.3687
   437.20         145.3812
   437.34         145.2757
   437.48         145.0367
   437.62         144.6803
   437.76         144.2473
   437.90         143.7762
   438.04         143.2848
   438.18         142.7737
   438.32         142.2487
   438.46         141.7339
   438.60         141.2549
   438.74         140.8198
   438.88         140.4267
   439.02         140.0866
   439.16         139.8249
   439.30         139.6621
   439.44         139.5923
   439.58         139.5797
   439.72         139.5790
   439.86         139.5649
   440.00         139.5457
   440.14         139.5445
   440.28         139.5585
   440.42         139.5396
   440.56         139.4239
   440.70         139.1708
   440.84         138.7827
   440.98         138.2999
   441.12         137.7762
   441.26         137.2613
   441.40         136.8030
   441.54         136.4574
   441.68         136.2778
   441.82         136.2883
   441.96         136.4752
   442.10         136.7946
   442.24         137.1846
   442.38         137.5830
   442.52         137.9531
   442.66         138.2856
   442.80         138.5717
   442.94         138.7925
   443.08         138.9255
   443.22         138.9637
   443.36         138.9260
   443.50         138.8451
   443.64         138.7478
   443.78         138.6468
   443.92         138.5500
   444.06         138.4640
   444.20         138.3923
   444.34         138.3318
   444.48         138.2739
   444.62         138.2124
   444.76         138.1441
   444.90         138.0668
   445.04         137.9783
   445.18         137.8702
   445.32         137.7175
   445.46         137.4784
   445.60         137.1113
   445.74         136.5998
   445.88         135.9776
   446.02         135.3171
   446.16         134.6949
   446.30         134.1703
   446.44         133.7921
   446.58         133.5988
   446.72         133.5988
   446.86         133.7553
   447.00         134.0008
   447.14         134.2746
   447.28         134.5402
   447.42         134.7761
   447.56         134.9634
   447.70         135.0734
   447.84         135.0736
   447.98         134.9433
   448.12         134.6785
   448.26         134.2996
   448.40         133.8567
   448.54         133.4206
   448.68         133.0589
   448.82         132.8141
   448.96         132.7039
   449.10         132.7345
   449.24         132.9045
   449.38         133.2032
   449.52         133.6144
   449.66         134.1294
   449.80         134.7522
   449.94         135.4746
   450.08         136.2565
   450.22         137.0262
   450.36         137.7022
   450.50         138.2244
   450.64         138.5588
   450.78         138.6848
   450.92         138.5908
   451.06         138.2790
   451.20         137.7700
   451.34         137.0999
   451.48         136.3195
   451.62         135.4849
   451.76         134.6473
   451.90         133.8432
   452.04         133.0834
   452.18         132.3636
   452.32         131.7039
   452.46         131.1562
   452.60         130.7615
   452.74         130.5275
   452.88         130.4417
   453.02         130.4948
   453.16         130.6791
   453.30         130.9724
   453.44         131.3376
   453.58         131.7256
   453.72         132.0765
   453.86         132.3312
   454.00         132.4411
   454.14         132.3676
