# File HD8992
# Wavelength [nm]    Normalized Amplitude
   349.70         118.6121
   349.84         117.4820
   349.98         116.5140
   350.12         115.6868
   350.26         115.0109
   350.40         114.5302
   350.54         114.2609
   350.68         114.1674
   350.82         114.1836
   350.96         114.2308
   351.10         114.2522
   351.24         114.2308
   351.38         114.1836
   351.52         114.1674
   351.66         114.2609
   351.80         114.5302
   351.94         115.0109
   352.08         115.6868
   352.22         116.5140
   352.36         117.4820
   352.50         118.6121
   352.64         119.9265
   352.78         121.4380
   352.92         123.1452
   353.06         125.0119
   353.20         126.9561
   353.34         128.8986
   353.48         130.7867
   353.62         132.5704
   353.76         134.1923
   353.90         135.5835
   354.04         136.6645
   354.18         137.3723
   354.32         137.6852
   354.46         137.6203
   354.60         137.2144
   354.74         136.5088
   354.88         135.5745
   355.02         134.5240
   355.16         133.4469
   355.30         132.3689
   355.44         131.2857
   355.58         130.1865
   355.72         129.0394
   355.86         127.7913
   356.00         126.3891
   356.14         124.7989
   356.28         123.0276
   356.42         121.1306
   356.56         119.2022
   356.70         117.3656
   356.84         115.7753
   356.98         114.5800
   357.12         113.8380
   357.26         113.4884
   357.40         113.4011
   357.54         113.4452
   357.68         113.5273
   357.82         113.5843
   357.96         113.5938
   358.10         113.5886
   358.24         113.6332
   358.38         113.8106
   358.52         114.2273
   358.66         114.9921
   358.80         116.1726
   358.94         117.7636
   359.08         119.6869
   359.22         121.8191
   359.36         124.0080
   359.50         126.0912
   359.64         127.8876
   359.78         129.1949
   359.92         129.8668
   360.06         129.8813
   360.20         129.3385
   360.34         128.4180
   360.48         127.3073
   360.62         126.1619
   360.76         125.1112
   360.90         124.2743
   361.04         123.7595
   361.18         123.6393
   361.32         123.9540
   361.46         124.7286
   361.60         125.9343
   361.74         127.4293
   361.88         128.9785
   362.02         130.3379
   362.16         131.3138
   362.30         131.7776
   362.44         131.7043
   362.58         131.1935
   362.72         130.4193
   362.86         129.5656
   363.00         128.7730
   363.14         128.1174
   363.28         127.6390
   363.42         127.3687
   363.56         127.3240
   363.70         127.4927
   363.84         127.8305
   363.98         128.2901
   364.12         128.8199
   364.26         129.3493
   364.40         129.8572
   364.54         130.4520
   364.68         131.3204
   364.82         132.6053
   364.96         134.3500
   365.10         136.5134
   365.24         138.9836
   365.38         141.5685
   365.52         144.0157
   365.66         146.0848
   365.80         147.6157
   365.94         148.5549
   366.08         148.9410
   366.22         148.8760
   366.36         148.4942
   366.50         147.9366
   366.64         147.3306
   366.78         146.7796
   366.92         146.3713
   367.06         146.1706
   367.20         146.1843
   367.34         146.3490
   367.48         146.5794
   367.62         146.8556
   367.76         147.2627
   367.90         147.9307
   368.04         148.9712
   368.18         150.4683
   368.32         152.4675
   368.46         154.9407
   368.60         157.8014
   368.74         160.9680
   368.88         164.3539
   369.02         167.8125
   369.16         171.1178
   369.30         173.9970
   369.44         176.2163
   369.58         177.6438
   369.72         178.2323
   369.86         178.0167
   370.00         177.1465
   370.14         175.9044
   370.28         174.6992
   370.42         173.9880
   370.56         174.1485
   370.70         175.3715
   370.84         177.6067
   370.98         180.6033
   371.12         184.0362
   371.26         187.6212
   371.40         191.1267
   371.54         194.3115
   371.68         196.9238
   371.82         198.7707
   371.96         199.7603
   372.10         199.8792
   372.24         199.1475
   372.38         197.6236
   372.52         195.4849
   372.66         193.0888
   372.80         190.9121
   372.94         189.4147
   373.08         188.9029
   373.22         189.4416
   373.36         190.8589
   373.50         192.8205
   373.64         194.9380
   373.78         196.8702
   373.92         198.3847
   374.06         199.3941
   374.20         199.9647
   374.34         200.2589
   374.48         200.4314
   374.62         200.5853
   374.76         200.8239
   374.90         201.3291
   375.04         202.3805
   375.18         204.2601
   375.32         207.1004
   375.46         210.7683
   375.60         214.8600
   375.74         218.8021
   375.88         222.0077
   376.02         224.0443
   376.16         224.7440
   376.30         224.2611
   376.44         223.0760
   376.58         221.8940
   376.72         221.4502
   376.86         222.3145
   377.00         224.7860
   377.14         228.9176
   377.28         234.6156
   377.42         241.6306
   377.56         249.5360
   377.70         257.7786
   377.84         265.7039
   377.98         272.6211
   378.12         277.8798
   378.26         280.9345
   378.40         281.4183
   378.54         279.2172
   378.68         274.5305
   378.82         267.8856
   378.96         260.1017
   379.10         252.1889
   379.24         245.1667
   379.38         239.8628
   379.52         236.8024
   379.66         236.2607
   379.80         238.3117
   379.94         242.7636
   380.08         249.1172
   380.22         256.6643
   380.36         264.6791
   380.50         272.5254
   380.64         279.6504
   380.78         285.5626
   380.92         289.8962
   381.06         292.5109
   381.20         293.4843
   381.34         293.0398
   381.48         291.4772
   381.62         289.0804
   381.76         286.0167
   381.90         282.2841
   382.04         277.7525
   382.18         272.2619
   382.32         265.7210
   382.46         258.1627
   382.60         249.7729
   382.74         240.9219
   382.88         232.1795
   383.02         224.2791
   383.16         217.9573
   383.30         213.7758
   383.44         212.0756
   383.58         212.9990
   383.72         216.4683
   383.86         222.1713
   384.00         229.6665
   384.14         238.4683
   384.28         248.0321
   384.42         257.7542
   384.56         267.0443
   384.70         275.4449
   384.84         282.7288
   384.98         288.9251
   385.12         294.2762
   385.26         299.0882
   385.40         303.6183
   385.54         308.0827
   385.68         312.6359
   385.82         317.2950
   385.96         321.8731
   386.10         326.0366
   386.24         329.4569
   386.38         331.9095
   386.52         333.2863
   386.66         333.5665
   386.80         332.7700
   386.94         330.9175
   387.08         328.0201
   387.22         324.0762
   387.36         319.0795
   387.50         313.0205
   387.64         305.8842
   387.78         297.6994
   387.92         288.6185
   388.06         278.9489
   388.20         269.0986
   388.34         259.5017
   388.48         250.5982
   388.62         242.8612
   388.76         236.8212
   388.90         232.9930
   389.04         231.7055
   389.18         232.9574
   389.32         236.4308
   389.46         241.6064
   389.60         247.8750
   389.74         254.6514
   389.88         261.4504
   390.02         267.8772
   390.16         273.5904
   390.30         278.3264
   390.44         281.9327
   390.58         284.3439
   390.72         285.5286
   390.86         285.4809
   391.00         284.2529
   391.14         281.9327
   391.28         278.5729
   391.42         274.1388
   391.56         268.4814
   391.70         261.3321
   391.84         252.3699
   391.98         241.3602
   392.12         228.2652
   392.26         213.2701
   392.40         196.7676
   392.54         179.3417
   392.68         161.7628
   392.82         144.9812
   392.96         130.0699
   393.10         118.0943
   393.24         109.9868
   393.38         106.4305
   393.52         107.7332
   393.66         113.7502
   393.80         123.8936
   393.94         137.2339
   394.08         152.6604
   394.22         169.0293
   394.36         185.2618
   394.50         200.4357
   394.64         213.8685
   394.78         225.1141
   394.92         233.8857
   395.06         239.9783
   395.20         243.2129
   395.34         243.3975
   395.48         240.3311
   395.62         233.8936
   395.76         224.2044
   395.90         211.7215
   396.04         197.2269
   396.18         181.7732
   396.32         166.6192
   396.46         153.1344
   396.60         142.6565
   396.74         136.3136
   396.88         134.8557
   397.02         138.5550
   397.16         147.2127
   397.30         160.2185
   397.44         176.6145
   397.58         195.1853
   397.72         214.6218
   397.86         233.7167
   398.00         251.5080
   398.14         267.3366
   398.28         280.8404
   398.42         291.9151
   398.56         300.6614
   398.70         307.3642
   398.84         312.4358
   398.98         316.2869
   399.12         319.2275
   399.26         321.4425
   399.40         323.0560
   399.54         324.2230
   399.68         325.1582
   399.82         326.1115
   399.96         327.3171
   400.10         328.9420
   400.24         331.0672
   400.38         333.7212
   400.52         336.8927
   400.66         340.5169
   400.80         344.4490
   400.94         348.4578
   401.08         352.2801
   401.22         355.6996
   401.36         358.5991
   401.50         360.8967
   401.64         362.4538
   401.78         363.0672
   401.92         362.5758
   402.06         360.9847
   402.20         358.4637
   402.34         355.2868
   402.48         351.8063
   402.62         348.4039
   402.76         345.4213
   402.90         343.1251
   403.04         341.6692
   403.18         341.0635
   403.32         341.1970
   403.46         341.8907
   403.60         342.9590
   403.74         344.2450
   403.88         345.6019
   404.02         346.8400
   404.16         347.6804
   404.30         347.8424
   404.44         347.2049
   404.58         345.9059
   404.72         344.2819
   404.86         342.6741
   405.00         341.2906
   405.14         340.1796
   405.28         339.2764
   405.42         338.4731
   405.56         337.6887
   405.70         336.8872
   405.84         336.0523
   405.98         335.2009
   406.12         334.3471
   406.26         333.3831
   406.40         332.0516
   406.54         330.0826
   406.68         327.4005
   406.82         324.1903
   406.96         320.7965
   407.10         317.5560
   407.24         314.7147
   407.38         312.4552
   407.52         310.9201
   407.66         310.2549
   407.80         310.6195
   407.94         312.1228
   408.08         314.7295
   408.22         318.2258
   408.36         322.2144
   408.50         326.1223
   408.64         329.2726
   408.78         330.9421
   408.92         330.4906
   409.06         327.6113
   409.20         322.4706
   409.34         315.6086
   409.48         307.6983
   409.62         299.4111
   409.76         291.4375
   409.90         284.5174
   410.04         279.3901
   410.18         276.6684
   410.32         276.7055
   410.46         279.5055
   410.60         284.7068
   410.74         291.6567
   410.88         299.5339
   411.02         307.4638
   411.16         314.6543
   411.30         320.5100
   411.44         324.6746
   411.58         327.0485
   411.72         327.7721
   411.86         327.1163
   412.00         325.3902
   412.14         322.9497
   412.28         320.2235
   412.42         317.7017
   412.56         315.8959
   412.70         315.2631
   412.84         316.0726
   412.98         318.2936
   413.12         321.6424
   413.26         325.7509
   413.40         330.2811
   413.54         334.9209
   413.68         339.3516
   413.82         343.2699
   413.96         346.4049
   414.10         348.5254
   414.24         349.4797
   414.38         349.2532
   414.52         347.9948
   414.66         345.9924
   414.80         343.6097
   414.94         341.2229
   415.08         339.1897
   415.22         337.8148
   415.36         337.2795
   415.50         337.6111
   415.64         338.7306
   415.78         340.4840
   415.92         342.5888
   416.06         344.5869
   416.20         345.9364
   416.34         346.1608
   416.48         344.9295
   416.62         342.0853
   416.76         337.6915
   416.90         332.0488
   417.04         325.6469
   417.18         319.0757
   417.32         312.9180
   417.46         307.6774
   417.60         303.7586
   417.74         301.4491
   417.88         300.8778
   418.02         302.0010
   418.16         304.6243
   418.30         308.3881
   418.44         312.7557
   418.58         317.1402
   418.72         321.0844
   418.86         324.3099
   419.00         326.6408
   419.14         327.9435
   419.28         328.1637
   419.42         327.3824
   419.56         325.8017
   419.70         323.7054
   419.84         321.4542
   419.98         319.4675
   420.12         318.1529
   420.26         317.8093
   420.40         318.5814
   420.54         320.4676
   420.68         323.3402
   420.82         326.9435
   420.96         330.8859
   421.10         334.6873
   421.24         337.8548
   421.38         339.9481
   421.52         340.6807
   421.66         340.0308
   421.80         338.2568
   421.94         335.7603
   422.08         332.9306
   422.22         330.0885
   422.36         327.4774
   422.50         325.2692
   422.64         323.5608
   422.78         322.3890
   422.92         321.7750
   423.06         321.7612
   423.20         322.3626
   423.34         323.4776
   423.48         324.8660
   423.62         326.2327
   423.76         327.3288
   423.90         328.0238
   424.04         328.3740
   424.18         328.5923
   424.32         328.9051
   424.46         329.4012
   424.60         329.9912
   424.74         330.5230
   424.88         330.9322
   425.02         331.2952
   425.16         331.7912
   425.30         332.6396
   425.44         334.0053
   425.58         335.9032
   425.72         338.1626
   425.86         340.4483
   426.00         342.3796
   426.14         343.6764
   426.28         344.2365
   426.42         344.1163
   426.56         343.4824
   426.70         342.5477
   426.84         341.4892
   426.98         340.4099
   427.12         339.3576
   427.26         338.3593
   427.40         337.4441
   427.54         336.6420
   427.68         335.9068
   427.82         335.0818
   427.96         333.9672
   428.10         332.3734
   428.24         330.1643
   428.38         327.3000
   428.52         323.8480
   428.66         319.9578
   428.80         315.7963
   428.94         311.4833
   429.08         307.1148
   429.22         302.8003
   429.36         298.6523
   429.50         294.7905
   429.64         291.3661
   429.78         288.5945
   429.92         286.7202
   430.06         285.9106
   430.20         286.1835
   430.34         287.4553
   430.48         289.6638
   430.62         292.7721
   430.76         296.6546
   430.90         301.0683
   431.04         305.7185
   431.18         310.2905
   431.32         314.4487
   431.46         317.9414
   431.60         320.7029
   431.74         322.8182
   431.88         324.3910
   432.02         325.4702
   432.16         326.0675
   432.30         326.1531
   432.44         325.5990
   432.58         324.1089
   432.72         321.2693
   432.86         316.7502
   433.00         310.5028
   433.14         302.7926
   433.28         294.1241
   433.42         285.1571
   433.56         276.6387
   433.70         269.3101
   433.84         263.7656
   433.98         260.3937
   434.12         259.4446
   434.26         261.0390
   434.40         265.0884
   434.54         271.2714
   434.68         279.0804
   434.82         287.8889
   434.96         297.0339
   435.10         305.9340
   435.24         314.1868
   435.38         321.6004
   435.52         328.1434
   435.66         333.8652
   435.80         338.8423
   435.94         343.1281
   436.08         346.6851
   436.22         349.3498
   436.36         350.9420
   436.50         351.4339
   436.64         351.0286
   436.78         350.0995
   436.92         349.0121
   437.06         347.9384
   437.20         346.8140
   437.34         345.4758
   437.48         343.8282
   437.62         341.8817
   437.76         339.6879
   437.90         337.2778
   438.04         334.6534
   438.18         331.8264
   438.32         328.8751
   438.46         325.9596
   438.60         323.2389
   438.74         320.7902
   438.88         318.6593
   439.02         316.9683
   439.16         315.8655
   439.30         315.3830
   439.44         315.3975
   439.58         315.6682
   439.72         315.9278
   439.86         316.0296
   440.00         316.0291
   440.14         316.0651
   440.28         316.1572
   440.42         316.1636
   440.56         315.8988
   440.70         315.2553
   440.84         314.2352
   440.98         312.9120
   441.12         311.3993
   441.26         309.8337
   441.40         308.3687
   441.54         307.1763
   441.68         306.4111
   441.82         306.1323
   441.96         306.2725
   442.10         306.6706
   442.24         307.1433
   442.38         307.5927
   442.52         308.0770
   442.66         308.7351
   442.80         309.6191
   442.94         310.6312
   443.08         311.6057
   443.22         312.4345
   443.36         313.1102
   443.50         313.6454
   443.64         314.0201
   443.78         314.2155
   443.92         314.2446
   444.06         314.1256
   444.20         313.8533
   444.34         313.4173
   444.48         312.8352
   444.62         312.1530
   444.76         311.4237
   444.90         310.7088
   445.04         310.0835
   445.18         309.5974
   445.32         309.2031
   445.46         308.7466
   445.60         308.0694
   445.74         307.1507
   445.88         306.1759
   446.02         305.4470
   446.16         305.2391
   446.30         305.7628
   446.44         307.1674
   446.58         309.4954
   446.72         312.6098
   446.86         316.2115
   447.00         319.9601
   447.14         323.5842
   447.28         326.8985
   447.42         329.7648
   447.56         332.0618
   447.70         333.6716
   447.84         334.5107
   447.98         334.5649
   448.12         333.9035
   448.26         332.6969
   448.40         331.2237
   448.54         329.8398
   448.68         328.8536
   448.82         328.4321
   448.96         328.6302
   449.10         329.4629
   449.24         330.9217
   449.38         332.9545
   449.52         335.4971
   449.66         338.5001
   449.80         341.9136
   449.94         345.6191
   450.08         349.3657
   450.22         352.8200
   450.36         355.6834
   450.50         357.7648
   450.64         358.9572
   450.78         359.1866
   450.92         358.4035
   451.06         356.6096
   451.20         353.8760
   451.34         350.3206
   451.48         346.1012
   451.62         341.4387
   451.76         336.5963
   451.90         331.7870
   452.04         327.1319
   452.18         322.7454
   452.32         318.8164
   452.46         315.5970
   452.60         313.2916
   452.74         311.9662
   452.88         311.5806
