# File HD9167
# Wavelength [nm]    Normalized Amplitude
   349.70         146.6913
   349.84         146.0688
   349.98         145.5619
   350.12         145.1463
   350.26         144.8034
   350.40         144.5457
   350.54         144.3724
   350.68         144.2468
   350.82         144.1448
   350.96         144.0751
   351.10         144.0509
   351.24         144.0751
   351.38         144.1448
   351.52         144.2468
   351.66         144.3724
   351.80         144.5457
   351.94         144.8034
   352.08         145.1463
   352.22         145.5619
   352.36         146.0688
   352.50         146.6913
   352.64         147.4553
   352.78         148.3618
   352.92         149.3552
   353.06         150.3374
   353.20         151.2089
   353.34         151.9193
   353.48         152.4408
   353.62         152.7378
   353.76         152.7683
   353.90         152.4931
   354.04         151.8747
   354.18         150.8981
   354.32         149.5786
   354.46         147.9790
   354.60         146.2488
   354.74         144.6025
   354.88         143.2346
   355.02         142.2380
   355.16         141.5830
   355.30         141.1787
   355.44         140.9489
   355.58         140.8290
   355.72         140.7241
   355.86         140.5014
   356.00         140.0566
   356.14         139.3463
   356.28         138.3619
   356.42         137.1310
   356.56         135.7374
   356.70         134.3209
   356.84         133.0070
   356.98         131.9243
   357.12         131.2286
   357.26         130.9833
   357.40         131.1148
   357.54         131.4901
   357.68         131.9884
   357.82         132.5258
   357.96         133.0333
   358.10         133.4411
   358.24         133.6865
   358.38         133.7116
   358.52         133.5218
   358.66         133.2384
   358.80         132.9956
   358.94         132.8787
   359.08         132.9577
   359.22         133.2618
   359.36         133.7596
   359.50         134.3883
   359.64         135.1168
   359.78         135.9002
   359.92         136.6447
   360.06         137.2763
   360.20         137.7664
   360.34         138.1066
   360.48         138.2905
   360.62         138.3096
   360.76         138.1796
   360.90         137.9519
   361.04         137.6824
   361.18         137.4125
   361.32         137.1706
   361.46         136.9841
   361.60         136.8833
   361.74         136.8639
   361.88         136.8673
   362.02         136.8429
   362.16         136.7923
   362.30         136.7673
   362.44         136.8247
   362.58         137.0036
   362.72         137.3345
   362.86         137.7951
   363.00         138.2840
   363.14         138.6637
   363.28         138.8453
   363.42         138.8125
   363.56         138.6047
   363.70         138.3179
   363.84         138.0736
   363.98         137.9705
   364.12         138.0787
   364.26         138.4863
   364.40         139.2629
   364.54         140.4207
   364.68         141.9508
   364.82         143.8152
   364.96         145.9140
   365.10         148.0800
   365.24         150.1336
   365.38         151.9218
   365.52         153.3223
   365.66         154.2756
   365.80         154.8014
   365.94         154.9866
   366.08         154.9669
   366.22         154.9070
   366.36         154.9376
   366.50         155.0975
   366.64         155.3892
   366.78         155.8776
   366.92         156.6776
   367.06         157.8436
   367.20         159.3544
   367.34         161.1723
   367.48         163.2876
   367.62         165.7614
   367.76         168.6995
   367.90         172.1489
   368.04         176.0719
   368.18         180.3980
   368.32         185.0349
   368.46         189.8551
   368.60         194.7462
   368.74         199.6742
   368.88         204.6281
   369.02         209.5380
   369.16         214.2721
   369.30         218.6808
   369.44         222.6683
   369.58         226.2190
   369.72         229.3314
   369.86         231.9755
   370.00         234.1504
   370.14         235.9750
   370.28         237.7324
   370.42         239.8187
   370.56         242.6287
   370.70         246.4114
   370.84         251.1104
   370.98         256.3717
   371.12         261.8147
   371.26         267.2885
   371.40         272.8372
   371.54         278.5092
   371.68         284.2872
   371.82         290.1088
   371.96         295.8317
   372.10         301.1589
   372.24         305.6369
   372.38         308.8066
   372.52         310.4746
   372.66         310.9200
   372.80         310.8508
   372.94         311.1180
   373.08         312.3895
   373.22         314.9362
   373.36         318.6163
   373.50         323.0261
   373.64         327.6545
   373.78         332.0028
   373.92         335.6355
   374.06         338.2227
   374.20         339.6441
   374.34         339.9973
   374.48         339.4814
   374.62         338.3153
   374.76         336.8259
   374.90         335.6150
   375.04         335.5605
   375.18         337.5568
   375.32         342.1314
   375.46         349.1404
   375.60         357.7023
   375.74         366.4214
   375.88         373.7860
   376.02         378.5996
   376.16         380.3019
   376.30         379.1323
   376.44         376.1694
   376.58         373.0991
   376.72         371.7292
   376.86         373.5417
   377.00         379.4352
   377.14         389.7177
   377.28         404.2303
   377.42         422.3843
   377.56         443.2024
   377.70         465.3970
   377.84         487.4150
   377.98         507.5574
   378.12         524.1288
   378.26         535.6057
   378.40         540.8359
   378.54         539.2405
   378.68         530.9911
   378.82         517.0256
   378.96         498.9694
   379.10         478.9536
   379.24         459.2861
   379.38         442.1543
   379.52         429.4277
   379.66         422.5594
   379.80         422.4392
   379.94         429.1842
   380.08         442.0961
   380.22         459.8934
   380.36         480.9748
   380.50         503.5930
   380.64         525.9924
   380.78         546.4901
   380.92         563.6579
   381.06         576.5495
   381.20         584.8103
   381.34         588.6356
   381.48         588.5738
   381.62         585.2884
   381.76         579.3120
   381.90         570.8860
   382.04         559.9609
   382.18         546.2621
   382.32         529.4781
   382.46         509.5270
   382.60         486.8135
   382.74         462.3889
   382.88         437.9230
   383.02         415.4762
   383.16         397.1232
   383.30         384.5695
   383.44         378.9121
   383.58         380.6015
   383.72         389.4952
   383.86         404.9463
   384.00         425.9186
   384.14         451.0398
   384.28         478.6037
   384.42         506.6459
   384.56         533.1667
   384.70         556.4582
   384.84         575.4108
   384.98         589.6807
   385.12         599.6251
   385.26         605.9864
   385.40         609.6275
   385.54         611.4664
   385.68         612.3842
   385.82         613.0524
   385.96         613.8395
   386.10         614.8597
   386.24         616.0786
   386.38         617.3838
   386.52         618.5888
   386.66         619.3935
   386.80         619.3700
   386.94         618.0324
   387.08         614.9162
   387.22         609.5844
   387.36         601.5909
   387.50         590.4676
   387.64         575.7964
   387.78         557.4123
   387.92         535.6554
   388.06         511.4628
   388.20         486.2059
   388.34         461.4617
   388.48         438.8499
   388.62         419.8974
   388.76         405.9220
   388.90         397.9322
   389.04         396.4996
   389.18         401.6414
   389.32         412.8107
   389.46         429.0116
   389.60         448.9547
   389.74         471.1686
   389.88         494.0787
   390.02         516.1445
   390.16         536.0853
   390.30         553.0922
   390.44         566.8766
   390.58         577.5427
   390.72         585.3733
   390.86         590.6946
   391.00         593.8608
   391.14         595.2140
   391.28         595.0401
   391.42         593.5554
   391.56         590.8204
   391.70         586.6223
   391.84         580.4184
   391.98         571.3779
   392.12         558.6229
   392.26         541.5732
   392.40         520.2421
   392.54         495.4156
   392.68         468.6518
   392.82         442.1058
   392.96         418.1864
   393.10         399.1337
   393.24         386.7072
   393.38         381.9919
   393.52         385.2876
   393.66         396.0921
   393.80         413.1661
   393.94         434.6965
   394.08         458.5323
   394.22         482.4636
   394.36         504.5108
   394.50         523.1489
   394.64         537.5116
   394.78         547.4981
   394.92         553.5796
   395.06         556.4030
   395.20         556.3597
   395.34         553.2851
   395.48         546.4653
   395.62         534.9575
   395.76         518.0955
   395.90         495.9052
   396.04         469.2488
   396.18         439.7580
   396.32         409.6360
   396.46         381.4070
   396.60         357.6258
   396.74         340.5101
   396.88         331.6069
   397.02         331.6671
   397.16         340.6624
   397.30         357.8068
   397.44         381.6004
   397.58         409.9953
   397.72         440.6897
   397.86         471.4399
   398.00         500.3594
   398.14         526.1439
   398.28         548.1586
   398.42         566.3791
   398.56         581.1612
   398.70         592.9716
   398.84         602.2098
   398.98         609.1369
   399.12         613.8737
   399.26         616.4384
   399.40         616.9051
   399.54         615.5753
   399.68         612.9796
   399.82         609.7048
   399.96         606.2403
   400.10         602.9788
   400.24         600.2456
   400.38         598.3144
   400.52         597.3919
   400.66         597.5737
   400.80         598.8003
   400.94         600.8535
   401.08         603.3877
   401.22         605.9728
   401.36         608.1894
   401.50         609.6845
   401.64         610.1676
   401.78         609.4126
   401.92         607.3477
   402.06         604.1315
   402.20         600.0600
   402.34         595.4691
   402.48         590.7491
   402.62         586.3694
   402.76         582.8428
   402.90         580.6073
   403.04         579.8906
   403.18         580.6416
   403.32         582.5362
   403.46         585.0533
   403.60         587.6332
   403.74         589.8061
   403.88         591.2357
   404.02         591.7188
   404.16         591.1212
   404.30         589.4249
   404.44         586.8415
   404.58         583.8077
   404.72         580.8366
   404.86         578.3412
   405.00         576.5571
   405.14         575.5204
   405.28         575.1180
   405.42         575.1392
   405.56         575.3180
   405.70         575.3761
   405.84         575.0560
   405.98         574.2298
   406.12         572.9296
   406.26         571.2043
   406.40         568.9855
   406.54         566.1629
   406.68         562.7877
   406.82         559.1270
   406.96         555.5795
   407.10         552.4996
   407.24         550.0762
   407.38         548.3443
   407.52         547.2289
   407.66         546.6256
   407.80         546.4478
   407.94         546.6106
   408.08         546.9517
   408.22         547.1730
   408.36         546.8045
   408.50         545.1931
   408.64         541.5796
   408.78         535.1277
   408.92         525.0603
   409.06         511.0395
   409.20         493.4412
   409.34         473.3075
   409.48         452.0882
   409.62         431.4070
   409.76         412.9185
   409.90         398.1800
   410.04         388.4939
   410.18         384.7739
   410.32         387.4484
   410.46         396.3673
   410.60         410.7689
   410.74         429.3430
   410.88         450.3838
   411.02         472.0163
   411.16         492.4783
   411.30         510.3610
   411.44         524.7372
   411.58         535.2310
   411.72         541.9896
   411.86         545.4997
   412.00         546.4015
   412.14         545.3856
   412.28         543.1343
   412.42         540.3002
   412.56         537.5123
   412.70         535.3677
   412.84         534.3318
   412.98         534.6132
   413.12         536.1433
   413.26         538.6689
   413.40         541.8695
   413.54         545.4044
   413.68         548.9184
   413.82         552.0813
   413.96         554.6169
   414.10         556.3232
   414.24         557.1108
   414.38         557.0300
   414.52         556.2665
   414.66         555.0655
   414.80         553.6215
   414.94         552.0513
   415.08         550.4450
   415.22         548.9194
   415.36         547.5934
   415.50         546.5239
   415.64         545.7299
   415.78         545.1924
   415.92         544.7921
   416.06         544.2909
   416.20         543.3735
   416.34         541.7431
   416.48         539.1676
   416.62         535.4711
   416.76         530.6064
   416.90         524.7179
   417.04         518.1324
   417.18         511.3142
   417.32         504.7677
   417.46         498.9713
   417.60         494.3782
   417.74         491.3914
   417.88         490.2748
   418.02         491.0691
   418.16         493.5891
   418.30         497.4650
   418.44         502.1528
   418.58         507.0486
   418.72         511.6627
   418.86         515.6659
   419.00         518.8328
   419.14         521.0025
   419.28         522.1385
   419.42         522.3877
   419.56         521.9934
   419.70         521.2047
   419.84         520.2682
   419.98         519.4071
   420.12         518.8039
   420.26         518.5828
   420.40         518.7995
   420.54         519.4528
   420.68         520.5082
   420.82         521.9041
   420.96         523.5081
   421.10         525.0945
   421.24         526.3963
   421.38         527.1527
   421.52         527.1686
   421.66         526.4057
   421.80         525.0165
   421.94         523.2273
   422.08         521.1983
   422.22         519.0130
   422.36         516.7509
   422.50         514.5416
   422.64         512.5557
   422.78         510.9670
   422.92         509.9103
   423.06         509.4853
   423.20         509.7343
   423.34         510.5738
   423.48         511.7618
   423.62         512.9484
   423.76         513.7801
   423.90         513.9931
   424.04         513.4873
   424.18         512.3578
   424.32         510.8127
   424.46         509.0175
   424.60         507.0160
   424.74         504.8265
   424.88         502.5731
   425.02         500.4999
   425.16         498.8921
   425.30         497.9898
   425.44         497.9116
   425.58         498.6143
   425.72         499.9132
   425.86         501.5008
   426.00         503.0115
   426.14         504.1359
   426.28         504.7089
   426.42         504.7240
   426.56         504.2855
   426.70         503.5706
   426.84         502.7831
   426.98         502.0799
   427.12         501.5396
   427.26         501.1957
   427.40         501.0901
   427.54         501.2676
   427.68         501.6675
   427.82         502.0937
   427.96         502.2847
   428.10         501.9639
   428.24         500.9085
   428.38         499.0100
   428.52         496.2919
   428.66         492.8825
   428.80         488.9468
   428.94         484.6252
   429.08         480.0601
   429.22         475.4353
   429.36         470.9700
   429.50         466.8752
   429.64         463.3310
   429.78         460.5108
   429.92         458.5471
   430.06         457.4230
   430.20         456.9251
   430.34         456.7860
   430.48         456.8949
   430.62         457.2833
   430.76         457.9501
   430.90         458.8234
   431.04         459.8070
   431.18         460.7809
   431.32         461.5888
   431.46         462.1261
   431.60         462.4198
   431.74         462.5907
   431.88         462.7398
   432.02         462.8588
   432.16         462.8004
   432.30         462.2614
   432.44         460.7500
   432.58         457.5599
   432.72         451.9015
   432.86         443.2083
   433.00         431.3879
   433.14         416.8492
   433.28         400.4079
   433.42         383.1957
   433.56         366.5860
   433.70         352.0246
   433.84         340.7721
   433.98         333.7680
   434.12         331.6469
   434.26         334.7116
   434.40         342.8387
   434.54         355.4418
   434.68         371.5224
   434.82         389.7851
   434.96         408.8128
   435.10         427.2975
   435.24         444.2365
   435.38         459.0260
   435.52         471.4573
   435.66         481.6263
   435.80         489.7930
   435.94         496.2294
   436.08         501.0851
   436.22         504.3512
   436.36         505.9714
   436.50         506.0170
   436.64         504.8104
   436.78         502.8684
   436.92         500.6644
   437.06         498.4228
   437.20         496.1081
   437.34         493.5980
   437.48         490.8685
   437.62         488.0377
   437.76         485.2918
   437.90         482.7840
   438.04         480.5563
   438.18         478.5372
   438.32         476.6185
   438.46         474.7403
   438.60         472.8731
   438.74         470.9615
   438.88         469.0004
   439.02         467.1405
   439.16         465.6256
   439.30         464.6126
   439.44         464.0739
   439.58         463.8568
   439.72         463.8054
   439.86         463.8649
   440.00         464.1197
   440.14         464.6691
   440.28         465.4085
   440.42         465.9741
   440.56         465.9170
   440.70         464.9248
   440.84         462.9372
   440.98         460.1518
   441.12         456.9482
   441.26         453.7566
   441.40         450.9848
   441.54         449.0004
   441.68         448.0576
   441.82         448.2111
   441.96         449.3208
   442.10         451.1387
   442.24         453.3869
   442.38         455.7866
   442.52         458.1028
   442.66         460.1766
   442.80         461.8622
   442.94         462.9663
   443.08         463.3139
   443.22         462.8905
   443.36         461.8910
   443.50         460.5865
   443.64         459.2023
   443.78         457.9079
   443.92         456.8447
   444.06         456.1262
   444.20         455.8142
   444.34         455.9335
   444.48         456.5077
   444.62         457.5609
   444.76         459.0867
   444.90         461.0146
   445.04         463.1919
   445.18         465.3979
   445.32         467.3662
   445.46         468.7725
   445.60         469.3006
   445.74         468.8174
   445.88         467.4721
   446.02         465.5801
   446.16         463.4574
   446.30         461.3975
   446.44         459.6879
   446.58         458.5726
   446.72         458.1560
   446.86         458.3699
   447.00         459.0689
   447.14         460.1436
   447.28         461.5312
   447.42         463.1465
   447.56         464.8241
   447.70         466.3165
   447.84         467.3915
   447.98         467.9236
   448.12         467.9089
   448.26         467.4775
   448.40         466.8967
   448.54         466.4781
   448.68         466.4298
   448.82         466.8146
   448.96         467.5956
   449.10         468.6975
   449.24         470.0428
   449.38         471.5278
   449.52         473.0605
   449.66         474.6189
   449.80         476.2358
   449.94         477.8919
   450.08         479.4449
   450.22         480.6916
   450.36         481.4751
   450.50         481.7536
   450.64         481.5466
   450.78         480.8388
   450.92         479.5677
   451.06         477.6949
   451.20         475.2676
   451.34         472.4284
   451.48         469.3806
   451.62         466.3633
   451.76         463.6262
   451.90         461.3311
   452.04         459.5132
   452.18         458.1829
   452.32         457.3997
   452.46         457.2484
   452.60         457.7360
   452.74         458.7367
   452.88         460.0541
