# File HD9547
# Wavelength [nm]    Normalized Amplitude
   349.70         8.5210
   349.84         8.6043
   349.98         8.7188
   350.12         8.8580
   350.26         9.0135
   350.40         9.1742
   350.54         9.3283
   350.68         9.4646
   350.82         9.5710
   350.96         9.6377
   351.10         9.6603
   351.24         9.6377
   351.38         9.5710
   351.52         9.4646
   351.66         9.3283
   351.80         9.1742
   351.94         9.0135
   352.08         8.8580
   352.22         8.7188
   352.36         8.6043
   352.50         8.5210
   352.64         8.4734
   352.78         8.4603
   352.92         8.4735
   353.06         8.5016
   353.20         8.5332
   353.34         8.5577
   353.48         8.5674
   353.62         8.5600
   353.76         8.5385
   353.90         8.5061
   354.04         8.4671
   354.18         8.4274
   354.32         8.3956
   354.46         8.3802
   354.60         8.3863
   354.74         8.4163
   354.88         8.4688
   355.02         8.5377
   355.16         8.6132
   355.30         8.6835
   355.44         8.7385
   355.58         8.7707
   355.72         8.7746
   355.86         8.7450
   356.00         8.6799
   356.14         8.5825
   356.28         8.4600
   356.42         8.3218
   356.56         8.1791
   356.70         8.0461
   356.84         7.9377
   356.98         7.8658
   357.12         7.8354
   357.26         7.8433
   357.40         7.8804
   357.54         7.9347
   357.68         7.9935
   357.82         8.0453
   357.96         8.0817
   358.10         8.0984
   358.24         8.0944
   358.38         8.0713
   358.52         8.0351
   358.66         7.9963
   358.80         7.9651
   358.94         7.9475
   359.08         7.9459
   359.22         7.9609
   359.36         7.9914
   359.50         8.0336
   359.64         8.0825
   359.78         8.1328
   359.92         8.1809
   360.06         8.2243
   360.20         8.2623
   360.34         8.2957
   360.48         8.3249
   360.62         8.3500
   360.76         8.3717
   360.90         8.3891
   361.04         8.4008
   361.18         8.4067
   361.32         8.4079
   361.46         8.4047
   361.60         8.3992
   361.74         8.3954
   361.88         8.3971
   362.02         8.4045
   362.16         8.4151
   362.30         8.4242
   362.44         8.4267
   362.58         8.4189
   362.72         8.3996
   362.86         8.3707
   363.00         8.3359
   363.14         8.2985
   363.28         8.2613
   363.42         8.2263
   363.56         8.1951
   363.70         8.1701
   363.84         8.1534
   363.98         8.1466
   364.12         8.1488
   364.26         8.1582
   364.40         8.1735
   364.54         8.1940
   364.68         8.2192
   364.82         8.2505
   364.96         8.2903
   365.10         8.3405
   365.24         8.4002
   365.38         8.4663
   365.52         8.5336
   365.66         8.5955
   365.80         8.6461
   365.94         8.6836
   366.08         8.7092
   366.22         8.7245
   366.36         8.7314
   366.50         8.7309
   366.64         8.7221
   366.78         8.7033
   366.92         8.6755
   367.06         8.6425
   367.20         8.6069
   367.34         8.5707
   367.48         8.5351
   367.62         8.5012
   367.76         8.4690
   367.90         8.4392
   368.04         8.4136
   368.18         8.3952
   368.32         8.3874
   368.46         8.3915
   368.60         8.4069
   368.74         8.4301
   368.88         8.4575
   369.02         8.4873
   369.16         8.5172
   369.30         8.5451
   369.44         8.5719
   369.58         8.5993
   369.72         8.6276
   369.86         8.6544
   370.00         8.6768
   370.14         8.6937
   370.28         8.7079
   370.42         8.7268
   370.56         8.7596
   370.70         8.8114
   370.84         8.8809
   370.98         8.9607
   371.12         9.0407
   371.26         9.1131
   371.40         9.1740
   371.54         9.2246
   371.68         9.2703
   371.82         9.3172
   371.96         9.3673
   372.10         9.4172
   372.24         9.4588
   372.38         9.4835
   372.52         9.4881
   372.66         9.4771
   372.80         9.4620
   372.94         9.4573
   373.08         9.4752
   373.22         9.5200
   373.36         9.5867
   373.50         9.6657
   373.64         9.7458
   373.78         9.8155
   373.92         9.8662
   374.06         9.8953
   374.20         9.9051
   374.34         9.8990
   374.48         9.8794
   374.62         9.8488
   374.76         9.8141
   374.90         9.7905
   375.04         9.7997
   375.18         9.8621
   375.32         9.9859
   375.46         10.1644
   375.60         10.3769
   375.74         10.5919
   375.88         10.7728
   376.02         10.8881
   376.16         10.9216
   376.30         10.8757
   376.44         10.7720
   376.58         10.6460
   376.72         10.5389
   376.86         10.4882
   377.00         10.5227
   377.14         10.6624
   377.28         10.9165
   377.42         11.2809
   377.56         11.7364
   377.70         12.2489
   377.84         12.7732
   377.98         13.2614
   378.12         13.6701
   378.26         13.9615
   378.40         14.1055
   378.54         14.0841
   378.68         13.8977
   378.82         13.5666
   378.96         13.1270
   379.10         12.6268
   379.24         12.1217
   379.38         11.6673
   379.52         11.3118
   379.66         11.0943
   379.80         11.0424
   379.94         11.1652
   380.08         11.4523
   380.22         11.8783
   380.36         12.4096
   380.50         13.0077
   380.64         13.6321
   380.78         14.2414
   380.92         14.7963
   381.06         15.2673
   381.20         15.6385
   381.34         15.9057
   381.48         16.0712
   381.62         16.1384
   381.76         16.1099
   381.90         15.9855
   382.04         15.7609
   382.18         15.4309
   382.32         14.9939
   382.46         14.4551
   382.60         13.8294
   382.74         13.1444
   382.88         12.4409
   383.02         11.7679
   383.16         11.1767
   383.30         10.7157
   383.44         10.4247
   383.58         10.3294
   383.72         10.4403
   383.86         10.7517
   384.00         11.2435
   384.14         11.8839
   384.28         12.6323
   384.42         13.4422
   384.56         14.2653
   384.70         15.0560
   384.84         15.7787
   384.98         16.4129
   385.12         16.9537
   385.26         17.4061
   385.40         17.7797
   385.54         18.0858
   385.68         18.3377
   385.82         18.5493
   385.96         18.7297
   386.10         18.8795
   386.24         18.9922
   386.38         19.0587
   386.52         19.0704
   386.66         19.0183
   386.80         18.8947
   386.94         18.6956
   387.08         18.4203
   387.22         18.0689
   387.36         17.6426
   387.50         17.1434
   387.64         16.5735
   387.78         15.9379
   387.92         15.2498
   388.06         14.5333
   388.20         13.8217
   388.34         13.1517
   388.48         12.5578
   388.62         12.0697
   388.76         11.7135
   388.90         11.5109
   389.04         11.4765
   389.18         11.6135
   389.32         11.9116
   389.46         12.3475
   389.60         12.8880
   389.74         13.4963
   389.88         14.1373
   390.02         14.7809
   390.16         15.4042
   390.30         15.9928
   390.44         16.5406
   390.58         17.0459
   390.72         17.5083
   390.86         17.9272
   391.00         18.3027
   391.14         18.6378
   391.28         18.9359
   391.42         19.1982
   391.56         19.4211
   391.70         19.5940
   391.84         19.6992
   391.98         19.7135
   392.12         19.6136
   392.26         19.3853
   392.40         19.0301
   392.54         18.5669
   392.68         18.0295
   392.82         17.4632
   392.96         16.9183
   393.10         16.4423
   393.24         16.0778
   393.38         15.8586
   393.52         15.8026
   393.66         15.9083
   393.80         16.1534
   393.94         16.4988
   394.08         16.8949
   394.22         17.2894
   394.36         17.6336
   394.50         17.8874
   394.64         18.0261
   394.78         18.0438
   394.92         17.9519
   395.06         17.7693
   395.20         17.5116
   395.34         17.1855
   395.48         16.7879
   395.62         16.3081
   395.76         15.7371
   395.90         15.0765
   396.04         14.3410
   396.18         13.5587
   396.32         12.7707
   396.46         12.0277
   396.60         11.3840
   396.74         10.8890
   396.88         10.5805
   397.02         10.4801
   397.16         10.5929
   397.30         10.9103
   397.44         11.4098
   397.58         12.0549
   397.72         12.7996
   397.86         13.5965
   398.00         14.4030
   398.14         15.1818
   398.28         15.9045
   398.42         16.5545
   398.56         17.1265
   398.70         17.6238
   398.84         18.0539
   398.98         18.4244
   399.12         18.7399
   399.26         19.0019
   399.40         19.2110
   399.54         19.3708
   399.68         19.4897
   399.82         19.5790
   399.96         19.6515
   400.10         19.7176
   400.24         19.7851
   400.38         19.8588
   400.52         19.9428
   400.66         20.0387
   400.80         20.1446
   400.94         20.2570
   401.08         20.3718
   401.22         20.4852
   401.36         20.5934
   401.50         20.6923
   401.64         20.7771
   401.78         20.8426
   401.92         20.8847
   402.06         20.9025
   402.20         20.8983
   402.34         20.8764
   402.48         20.8434
   402.62         20.8073
   402.76         20.7749
   402.90         20.7503
   403.04         20.7356
   403.18         20.7301
   403.32         20.7296
   403.46         20.7277
   403.60         20.7192
   403.74         20.7018
   403.88         20.6760
   404.02         20.6441
   404.16         20.6084
   404.30         20.5692
   404.44         20.5258
   404.58         20.4786
   404.72         20.4316
   404.86         20.3905
   405.00         20.3602
   405.14         20.3404
   405.28         20.3248
   405.42         20.3033
   405.56         20.2660
   405.70         20.2080
   405.84         20.1302
   405.98         20.0371
   406.12         19.9344
   406.26         19.8264
   406.40         19.7128
   406.54         19.5886
   406.68         19.4477
   406.82         19.2878
   406.96         19.1117
   407.10         18.9260
   407.24         18.7384
   407.38         18.5554
   407.52         18.3800
   407.66         18.2112
   407.80         18.0451
   407.94         17.8759
   408.08         17.6973
   408.22         17.5016
   408.36         17.2799
   408.50         17.0181
   408.64         16.6973
   408.78         16.2978
   408.92         15.8055
   409.06         15.2184
   409.20         14.5509
   409.34         13.8349
   409.48         13.1137
   409.62         12.4340
   409.76         11.8401
   409.90         11.3707
   410.04         11.0557
   410.18         10.9144
   410.32         10.9544
   410.46         11.1702
   410.60         11.5441
   410.74         12.0475
   410.88         12.6420
   411.02         13.2834
   411.16         13.9288
   411.30         14.5423
   411.44         15.0988
   411.58         15.5855
   411.72         16.0004
   411.86         16.3477
   412.00         16.6346
   412.14         16.8692
   412.28         17.0609
   412.42         17.2219
   412.56         17.3677
   412.70         17.5136
   412.84         17.6727
   412.98         17.8528
   413.12         18.0547
   413.26         18.2735
   413.40         18.5007
   413.54         18.7264
   413.68         18.9402
   413.82         19.1325
   413.96         19.2958
   414.10         19.4247
   414.24         19.5150
   414.38         19.5640
   414.52         19.5723
   414.66         19.5452
   414.80         19.4933
   414.94         19.4301
   415.08         19.3685
   415.22         19.3183
   415.36         19.2852
   415.50         19.2711
   415.64         19.2765
   415.78         19.2993
   415.92         19.3326
   416.06         19.3661
   416.20         19.3886
   416.34         19.3917
   416.48         19.3708
   416.62         19.3235
   416.76         19.2505
   416.90         19.1557
   417.04         19.0470
   417.18         18.9358
   417.32         18.8350
   417.46         18.7556
   417.60         18.7040
   417.74         18.6833
   417.88         18.6940
   418.02         18.7337
   418.16         18.7977
   418.30         18.8789
   418.44         18.9659
   418.58         19.0462
   418.72         19.1128
   418.86         19.1646
   419.00         19.2024
   419.14         19.2252
   419.28         19.2327
   419.42         19.2272
   419.56         19.2130
   419.70         19.1953
   419.84         19.1806
   419.98         19.1748
   420.12         19.1816
   420.26         19.2023
   420.40         19.2374
   420.54         19.2859
   420.68         19.3443
   420.82         19.4075
   420.96         19.4676
   421.10         19.5149
   421.24         19.5408
   421.38         19.5396
   421.52         19.5074
   421.66         19.4438
   421.80         19.3545
   421.94         19.2481
   422.08         19.1330
   422.22         19.0167
   422.36         18.9056
   422.50         18.8035
   422.64         18.7124
   422.78         18.6329
   422.92         18.5669
   423.06         18.5175
   423.20         18.4877
   423.34         18.4772
   423.48         18.4823
   423.62         18.4967
   423.76         18.5134
   423.90         18.5274
   424.04         18.5369
   424.18         18.5441
   424.32         18.5527
   424.46         18.5647
   424.60         18.5787
   424.74         18.5916
   424.88         18.6017
   425.02         18.6108
   425.16         18.6229
   425.30         18.6420
   425.44         18.6695
   425.58         18.7042
   425.72         18.7421
   425.86         18.7755
   426.00         18.7950
   426.14         18.7926
   426.28         18.7653
   426.42         18.7156
   426.56         18.6509
   426.70         18.5815
   426.84         18.5175
   426.98         18.4656
   427.12         18.4282
   427.26         18.4045
   427.40         18.3921
   427.54         18.3881
   427.68         18.3884
   427.82         18.3858
   427.96         18.3705
   428.10         18.3349
   428.24         18.2764
   428.38         18.1962
   428.52         18.0972
   428.66         17.9837
   428.80         17.8600
   428.94         17.7304
   429.08         17.5986
   429.22         17.4688
   429.36         17.3439
   429.50         17.2246
   429.64         17.1094
   429.78         16.9981
   429.92         16.8932
   430.06         16.7988
   430.20         16.7175
   430.34         16.6506
   430.48         16.5993
   430.62         16.5661
   430.76         16.5519
   430.90         16.5533
   431.04         16.5623
   431.18         16.5682
   431.32         16.5598
   431.46         16.5275
   431.60         16.4657
   431.74         16.3731
   431.88         16.2493
   432.02         16.0920
   432.16         15.8972
   432.30         15.6607
   432.44         15.3784
   432.58         15.0446
   432.72         14.6519
   432.86         14.1941
   433.00         13.6724
   433.14         13.0991
   433.28         12.4967
   433.42         11.8945
   433.56         11.3264
   433.70         10.8271
   433.84         10.4298
   433.98         10.1616
   434.12         10.0402
   434.26         10.0740
   434.40         10.2608
   434.54         10.5872
   434.68         11.0299
   434.82         11.5578
   434.96         12.1372
   435.10         12.7363
   435.24         13.3280
   435.38         13.8927
   435.52         14.4181
   435.66         14.8995
   435.80         15.3369
   435.94         15.7329
   436.08         16.0898
   436.22         16.4074
   436.36         16.6841
   436.50         16.9186
   436.64         17.1121
   436.78         17.2682
   436.92         17.3920
   437.06         17.4877
   437.20         17.5549
   437.34         17.5917
   437.48         17.5984
   437.62         17.5800
   437.76         17.5431
   437.90         17.4949
   438.04         17.4416
   438.18         17.3886
   438.32         17.3417
   438.46         17.3079
   438.60         17.2938
   438.74         17.3025
   438.88         17.3321
   439.02         17.3774
   439.16         17.4328
   439.30         17.4933
   439.44         17.5550
   439.58         17.6136
   439.72         17.6649
   439.86         17.7067
   440.00         17.7410
   440.14         17.7709
   440.28         17.7972
   440.42         17.8175
   440.56         17.8285
   440.70         17.8286
   440.84         17.8188
   440.98         17.8017
   441.12         17.7793
   441.26         17.7514
   441.40         17.7161
   441.54         17.6725
   441.68         17.6227
   441.82         17.5716
   441.96         17.5240
   442.10         17.4825
   442.24         17.4476
   442.38         17.4194
   442.52         17.3998
   442.66         17.3913
   442.80         17.3946
   442.94         17.4075
   443.08         17.4256
   443.22         17.4455
   443.36         17.4651
   443.50         17.4821
   443.64         17.4927
   443.78         17.4935
   443.92         17.4833
   444.06         17.4630
   444.20         17.4341
   444.34         17.3983
   444.48         17.3572
   444.62         17.3124
   444.76         17.2665
   444.90         17.2219
   445.04         17.1810
   445.18         17.1453
   445.32         17.1142
   445.46         17.0848
   445.60         17.0535
   445.74         17.0193
   445.88         16.9861
   446.02         16.9594
   446.16         16.9422
   446.30         16.9350
   446.44         16.9384
   446.58         16.9523
   446.72         16.9736
   446.86         16.9964
   447.00         17.0143
   447.14         17.0237
   447.28         17.0233
   447.42         17.0136
   447.56         16.9970
   447.70         16.9759
   447.84         16.9520
   447.98         16.9266
   448.12         16.9021
   448.26         16.8834
   448.40         16.8761
   448.54         16.8841
   448.68         16.9086
   448.82         16.9480
   448.96         16.9993
   449.10         17.0586
   449.24         17.1220
   449.38         17.1853
   449.52         17.2458
   449.66         17.3028
   449.80         17.3562
   449.94         17.4052
   450.08         17.4485
   450.22         17.4842
   450.36         17.5104
   450.50         17.5251
   450.64         17.5263
   450.78         17.5125
   450.92         17.4823
   451.06         17.4348
   451.20         17.3706
   451.34         17.2908
   451.48         17.1968
   451.62         17.0913
   451.76         16.9799
   451.90         16.8679
   452.04         16.7583
   452.18         16.6532
   452.32         16.5573
   452.46         16.4784
   452.60         16.4240
   452.74         16.3970
   452.88         16.3958
   453.02         16.4165
   453.16         16.4532
   453.30         16.4994
   453.44         16.5485
   453.58         16.5933
   453.72         16.6259
   453.86         16.6398
   454.00         16.6308
   454.14         16.5978
   454.28         16.5418
   454.42         16.4653
   454.56         16.3723
   454.70         16.2708
   454.84         16.1720
   454.98         16.0870
   455.12         16.0231
   455.26         15.9824
   455.40         15.9634
   455.54         15.9645
   455.68         15.9845
   455.82         16.0224
   455.96         16.0753
   456.10         16.1384
   456.24         16.2064
   456.38         16.2755
   456.52         16.3422
   456.66         16.4025
   456.80         16.4514
   456.94         16.4831
   457.08         16.4929
   457.22         16.4787
   457.36         16.4425
   457.50         16.3870
   457.64         16.3146
   457.78         16.2291
   457.92         16.1361
