# File HD9973
# Wavelength [nm]    Normalized Amplitude
   349.70         224.2413
   349.84         222.6186
   349.98         220.6242
   350.12         218.3319
   350.26         215.8165
   350.40         213.1788
   350.54         210.5926
   350.68         208.2592
   350.82         206.3825
   350.96         205.1604
   351.10         204.7354
   351.24         205.1604
   351.38         206.3825
   351.52         208.2592
   351.66         210.5926
   351.80         213.1788
   351.94         215.8165
   352.08         218.3319
   352.22         220.6242
   352.36         222.6186
   352.50         224.2413
   352.64         225.4927
   352.78         226.4629
   352.92         227.2813
   353.06         228.0705
   353.20         228.9039
   353.34         229.7976
   353.48         230.7430
   353.62         231.7460
   353.76         232.8234
   353.90         233.9694
   354.04         235.1458
   354.18         236.3036
   354.32         237.4047
   354.46         238.4452
   354.60         239.4102
   354.74         240.2497
   354.88         240.9329
   355.02         241.4604
   355.16         241.8363
   355.30         242.0191
   355.44         241.8882
   355.58         241.2754
   355.72         240.0326
   355.86         238.0934
   356.00         235.4713
   356.14         232.2310
   356.28         228.4871
   356.42         224.3826
   356.56         220.0515
   356.70         215.6301
   356.84         211.2971
   356.98         207.2402
   357.12         203.5743
   357.26         200.3206
   357.40         197.4681
   357.54         195.0236
   357.68         192.9646
   357.82         191.2343
   357.96         189.8036
   358.10         188.7117
   358.24         188.0609
   358.38         187.9873
   358.52         188.6258
   358.66         190.0623
   358.80         192.3005
   358.94         195.2398
   359.08         198.6619
   359.22         202.2703
   359.36         205.7788
   359.50         208.9194
   359.64         211.3966
   359.78         212.9467
   359.92         213.4536
   360.06         212.9762
   360.20         211.7092
   360.34         209.9269
   360.48         207.9261
   360.62         205.9886
   360.76         204.3611
   360.90         203.2302
   361.04         202.6883
   361.18         202.7411
   361.32         203.3521
   361.46         204.4683
   361.60         206.0007
   361.74         207.8076
   361.88         209.7136
   362.02         211.5483
   362.16         213.1731
   362.30         214.5258
   362.44         215.6459
   362.58         216.6336
   362.72         217.5913
   362.86         218.5804
   363.00         219.5805
   363.14         220.5022
   363.28         221.2583
   363.42         221.7772
   363.56         221.9831
   363.70         221.8319
   363.84         221.3720
   363.98         220.7268
   364.12         219.9980
   364.26         219.2633
   364.40         218.6690
   364.54         218.4592
   364.68         218.9024
   364.82         220.1615
   364.96         222.2109
   365.10         224.8683
   365.24         227.8888
   365.38         231.0233
   365.52         234.0174
   365.66         236.6251
   365.80         238.6861
   365.94         240.1949
   366.08         241.2931
   366.22         242.2150
   366.36         243.2099
   366.50         244.4558
   366.64         246.0257
   366.78         247.9386
   366.92         250.2525
   367.06         253.0225
   367.20         256.1611
   367.34         259.4652
   367.48         262.7627
   367.62         266.0088
   367.76         269.3042
   367.90         272.8297
   368.04         276.7549
   368.18         281.1891
   368.32         286.1590
   368.46         291.6192
   368.60         297.5159
   368.74         303.8074
   368.88         310.3884
   369.02         316.9923
   369.16         323.2143
   369.30         328.6730
   369.44         333.1350
   369.58         336.4889
   369.72         338.6592
   369.86         339.6219
   370.00         339.5477
   370.14         338.8464
   370.28         338.1016
   370.42         338.0162
   370.56         339.2222
   370.70         342.0062
   370.84         346.1995
   370.98         351.3075
   371.12         356.8073
   371.26         362.3752
   371.40         367.8396
   371.54         373.0524
   371.68         377.8930
   371.82         382.3112
   371.96         386.2466
   372.10         389.4701
   372.24         391.5759
   372.38         392.1815
   372.52         391.2178
   372.66         389.1096
   372.80         386.6414
   372.94         384.6329
   373.08         383.6806
   373.22         383.9630
   373.36         385.2040
   373.50         386.8953
   373.64         388.5230
   373.78         389.6649
   373.92         390.0535
   374.06         389.6218
   374.20         388.5394
   374.34         387.1000
   374.48         385.4943
   374.62         383.7672
   374.76         382.0286
   374.90         380.6979
   375.04         380.4995
   375.18         382.2072
   375.32         386.2639
   375.46         392.4719
   375.60         399.9772
   375.74         407.5488
   375.88         413.9087
   376.02         418.0995
   376.16         419.7803
   376.30         419.2807
   376.44         417.5863
   376.58         416.2268
   376.72         416.9009
   376.86         420.9790
   377.00         429.1904
   377.14         441.6284
   377.28         457.8721
   377.42         477.0747
   377.56         498.0319
   377.70         519.2741
   377.84         539.2201
   377.98         556.3178
   378.12         569.1567
   378.26         576.5959
   378.40         577.8907
   378.54         572.8221
   378.68         561.9108
   378.82         546.5006
   378.96         528.6189
   379.10         510.7043
   379.24         495.1437
   379.38         483.7831
   379.52         477.7521
   379.66         477.6683
   379.80         483.6822
   379.94         495.2657
   380.08         511.2000
   380.22         529.8523
   380.36         549.5702
   380.50         568.8764
   380.64         586.4076
   380.78         600.9373
   380.92         611.5867
   381.06         618.0174
   381.20         620.4317
   381.34         619.4095
   381.48         615.6720
   381.62         609.8559
   381.76         602.3850
   381.90         593.3814
   382.04         582.6705
   382.18         569.9580
   382.32         555.0171
   382.46         537.7433
   382.60         518.3259
   382.74         497.5305
   382.88         476.7947
   383.02         458.0321
   383.16         443.1506
   383.30         433.6079
   383.44         430.2392
   383.58         433.2269
   383.72         442.1312
   383.86         456.0395
   384.00         473.8274
   384.14         494.3122
   384.28         516.1776
   384.42         537.9412
   384.56         558.1395
   384.70         575.6756
   384.84         590.1201
   384.98         601.7109
   385.12         611.0671
   385.26         618.9169
   385.40         626.0113
   385.54         633.0941
   385.68         640.7670
   385.82         649.2531
   385.96         658.2584
   386.10         667.1330
   386.24         675.2154
   386.38         682.0088
   386.52         687.1375
   386.66         690.2410
   386.80         690.9605
   386.94         689.0077
   387.08         684.1785
   387.22         676.3288
   387.36         665.3528
   387.50         651.1565
   387.64         633.7308
   387.78         613.3693
   387.92         590.8625
   388.06         567.4316
   388.20         544.3865
   388.34         522.8850
   388.48         503.8868
   388.62         488.1736
   388.76         476.4299
   388.90         469.2215
   389.04         466.7930
   389.18         468.9099
   389.32         474.9182
   389.46         483.9226
   389.60         494.9730
   389.74         507.2220
   389.88         519.9554
   390.02         532.5235
   390.16         544.3205
   390.30         554.8482
   390.44         563.7141
   390.58         570.5589
   390.72         575.0300
   390.86         576.8191
   391.00         575.7954
   391.14         572.0497
   391.28         565.7918
   391.42         557.2512
   391.56         546.5722
   391.70         533.6489
   391.84         518.0778
   391.98         499.3719
   392.12         477.2200
   392.26         451.6305
   392.40         422.9477
   392.54         391.8708
   392.68         359.6138
   392.82         327.9849
   392.96         299.2158
   393.10         275.6365
   393.24         259.3568
   393.38         251.9631
   393.52         254.2041
   393.66         265.8306
   393.80         285.6450
   393.94         311.7222
   394.08         341.7754
   394.22         373.4807
   394.36         404.6504
   394.50         433.4057
   394.64         458.4040
   394.78         478.9188
   394.92         494.6413
   395.06         505.4309
   395.20         511.1526
   395.34         511.5334
   395.48         506.1333
   395.62         494.5288
   395.76         476.6157
   395.90         452.8830
   396.04         424.5120
   396.18         393.3397
   396.32         361.8144
   396.46         332.8250
   396.60         309.3465
   396.74         293.9624
   396.88         288.3731
   397.02         293.1798
   397.16         308.0118
   397.30         331.7600
   397.44         362.6409
   397.58         398.2549
   397.72         435.9335
   397.86         473.1561
   398.00         507.8901
   398.14         538.7752
   398.28         565.0710
   398.42         586.5258
   398.56         603.2870
   398.70         615.8414
   398.84         624.8956
   398.98         631.1916
   399.12         635.3565
   399.26         637.8037
   399.40         638.7850
   399.54         638.5939
   399.68         637.7144
   399.82         636.7790
   399.96         636.3701
   400.10         636.8566
   400.24         638.4485
   400.38         641.3185
   400.52         645.6076
   400.66         651.3438
   400.80         658.3077
   400.94         666.0337
   401.08         673.9494
   401.22         681.5145
   401.36         688.3349
   401.50         694.1428
   401.64         698.6673
   401.78         701.5537
   401.92         702.4005
   402.06         700.9829
   402.20         697.4044
   402.34         692.0383
   402.48         685.4952
   402.62         678.5920
   402.76         672.2181
   402.90         667.1881
   403.04         664.0926
   403.18         663.1545
   403.32         664.1825
   403.46         666.7060
   403.60         670.1605
   403.74         673.9784
   403.88         677.6697
   404.02         680.8223
   404.16         682.9962
   404.30         683.7285
   404.44         682.7436
   404.58         680.2249
   404.72         676.8614
   404.86         673.5377
   405.00         670.9379
   405.14         669.3423
   405.28         668.6924
   405.42         668.7528
   405.56         669.2520
   405.70         669.9549
   405.84         670.5946
   405.98         670.8894
   406.12         670.6387
   406.26         669.6398
   406.40         667.5693
   406.54         664.0418
   406.68         658.8346
   406.82         652.1438
   406.96         644.6215
   407.10         637.1326
   407.24         630.4405
   407.38         624.9947
   407.52         620.9522
   407.66         618.3924
   407.80         617.4756
   407.94         618.4309
   408.08         621.3619
   408.22         626.0489
   408.36         631.8856
   408.50         637.8982
   408.64         642.8994
   408.78         645.6203
   408.92         644.7928
   409.06         639.4576
   409.20         629.3978
   409.34         615.2921
   409.48         598.4535
   409.62         580.3989
   409.76         562.5680
   409.90         546.3230
   410.04         533.0466
   410.18         524.1206
   410.32         520.6907
   410.46         523.3092
   410.60         531.7192
   410.74         544.8749
   410.88         561.1659
   411.02         578.7127
   411.16         595.6636
   411.30         610.4596
   411.44         621.9569
   411.58         629.5009
   411.72         633.0096
   411.86         632.8902
   412.00         629.7889
   412.14         624.4566
   412.28         617.7865
   412.42         610.8483
   412.56         604.8275
   412.70         600.9066
   412.84         599.9853
   412.98         602.3485
   413.12         607.6172
   413.26         614.9983
   413.40         623.6272
   413.54         632.7274
   413.68         641.5503
   413.82         649.3540
   413.96         655.4983
   414.10         659.5101
   414.24         661.1543
   414.38         660.5177
   414.52         658.0421
   414.66         654.4457
   414.80         650.5083
   414.94         646.8648
   415.08         643.9158
   415.22         641.8920
   415.36         640.9401
   415.50         641.0349
   415.64         641.9693
   415.78         643.4759
   415.92         645.2129
   416.06         646.6732
   416.20         647.1799
   416.34         646.0591
   416.48         642.8156
   416.62         637.2030
   416.76         629.2837
   416.90         619.4828
   417.04         608.5359
   417.18         597.3219
   417.32         586.6808
   417.46         577.3289
   417.60         569.9140
   417.74         565.0484
   417.88         563.2096
   418.02         564.5797
   418.16         568.9600
   418.30         575.8151
   418.44         584.3272
   418.58         593.4998
   418.72         602.3859
   418.86         610.2715
   419.00         616.6681
   419.14         621.2322
   419.28         623.7876
   419.42         624.3898
   419.56         623.3029
   419.70         620.9016
   419.84         617.6497
   419.98         614.1651
   420.12         611.1482
   420.26         609.1762
   420.40         608.5727
   420.54         609.4177
   420.68         611.6380
   420.82         615.0611
   420.96         619.3655
   421.10         624.0298
   421.24         628.4110
   421.38         631.8654
   421.52         633.8866
   421.66         634.2787
   421.80         633.2554
   421.94         631.2913
   422.08         628.8466
   422.22         626.2707
   422.36         623.7944
   422.50         621.5677
   422.64         619.7169
   422.78         618.3299
   422.92         617.4615
   423.06         617.2123
   423.20         617.7166
   423.34         618.9821
   423.48         620.7529
   423.62         622.5538
   423.76         623.8820
   423.90         624.3969
   424.04         624.0530
   424.18         623.1241
   424.32         622.0344
   424.46         621.0955
   424.60         620.3364
   424.74         619.6286
   424.88         618.9609
   425.02         618.5490
   425.16         618.7835
   425.30         620.0937
   425.44         622.7859
   425.58         626.8901
   425.72         632.0974
   425.86         637.7700
   426.00         643.0515
   426.14         647.1279
   426.28         649.4785
   426.42         649.9444
   426.56         648.6609
   426.70         645.9812
   426.84         642.3719
   426.98         638.2799
   427.12         634.0709
   427.26         630.0608
   427.40         626.5405
   427.54         623.7262
   427.68         621.6439
   427.82         620.0586
   427.96         618.5725
   428.10         616.7550
   428.24         614.1635
   428.38         610.4350
   428.52         605.4268
   428.66         599.2384
   428.80         592.1080
   428.94         584.3212
   429.08         576.1731
   429.22         567.9597
   429.36         559.9924
   429.50         552.5850
   429.64         546.0295
   429.78         540.6495
   429.92         536.7877
   430.06         534.6252
   430.20         534.0932
   430.34         535.0070
   430.48         537.2790
   430.62         540.9413
   430.76         545.9233
   430.90         551.9330
   431.04         558.5980
   431.18         565.5241
   431.32         572.2224
   431.46         578.2270
   431.60         583.3462
   431.74         587.6722
   431.88         591.3443
   432.02         594.4133
   432.16         596.8391
   432.30         598.4787
   432.44         598.9973
   432.58         597.7377
   432.72         593.8132
   432.86         586.4855
   433.00         575.5209
   433.14         561.3054
   433.28         544.7267
   433.42         527.0480
   433.56         509.8298
   433.70         494.6866
   433.84         482.9515
   433.98         475.5513
   434.12         473.0838
   434.26         475.8803
   434.40         483.8897
   434.54         496.5581
   434.68         512.9116
   434.82         531.6710
   434.96         551.4215
   435.10         570.8451
   435.24         588.9401
   435.38         605.1696
   435.52         619.3827
   435.66         631.6422
   435.80         642.0817
   435.94         650.7758
   436.08         657.6415
   436.22         662.3834
   436.36         664.6166
   436.50         664.2050
   436.64         661.5023
   436.78         657.2661
   436.92         652.3574
   437.06         647.3791
   437.20         642.5236
   437.34         637.7244
   437.48         632.9193
   437.62         628.2174
   437.76         623.7892
   437.90         619.7246
   438.04         615.9916
   438.18         612.4219
   438.32         608.8121
   438.46         605.0722
   438.60         601.2146
   438.74         597.2310
   438.88         593.1372
   439.02         589.1543
   439.16         585.6844
   439.30         583.0695
   439.44         581.4224
   439.58         580.6305
   439.72         580.4646
   439.86         580.7451
   440.00         581.4641
   440.14         582.7027
   440.28         584.3417
   440.42         585.8518
   440.56         586.4726
   440.70         585.5657
   440.84         582.8302
   440.98         578.3779
   441.12         572.6827
   441.26         566.4403
   441.40         560.4382
   441.54         555.4863
   441.68         552.2850
   441.82         551.2336
   441.96         552.3426
   442.10         555.2756
   442.24         559.4631
   442.38         564.2871
   442.52         569.2949
   442.66         574.2202
   442.80         578.8154
   442.94         582.7276
   443.08         585.5370
   443.22         587.0170
   443.36         587.2829
   443.50         586.6701
   443.64         585.5612
   443.78         584.2542
   443.92         582.9600
   444.06         581.8214
   444.20         580.9035
   444.34         580.2091
   444.48         579.7147
   444.62         579.4010
   444.76         579.2445
   444.90         579.2163
   445.04         579.2981
   445.18         579.4602
   445.32         579.5492
   445.46         579.2488
   445.60         578.1695
   445.74         576.0710
   445.88         573.1118
   446.02         569.7863
   446.16         566.6736
   446.30         564.2753
   446.44         562.9919
   446.58         563.1561
   446.72         564.9359
   446.86         568.1892
   447.00         572.5301
   447.14         577.5682
   447.28         583.0108
   447.42         588.5937
   447.56         593.9847
   447.70         598.7306
   447.84         602.3439
   447.98         604.4467
   448.12         604.8596
   448.26         603.6385
   448.40         601.1347
   448.54         597.9793
   448.68         594.8773
   448.82         592.3651
   448.96         590.7209
   449.10         590.0812
   449.24         590.5386
   449.38         592.1232
   449.52         594.7616
   449.66         598.3739
   449.80         602.9566
   449.94         608.4387
   450.08         614.5504
   450.22         620.8147
   450.36         626.6721
   450.50         631.6789
   450.64         635.5380
   450.78         637.9986
   450.92         638.8270
   451.06         637.8710
   451.20         635.1067
   451.34         630.6285
   451.48         624.6618
   451.62         617.5702
   451.76         609.8271
   451.90         601.8983
   452.04         594.1220
   452.18         586.7103
   452.32         579.9502
   452.46         574.2943
   452.60         570.1469
   452.74         567.6823
   452.88         566.8438
