# File HD9979
# Wavelength [nm]    Normalized Amplitude
   349.70         6.8454
   349.84         6.8289
   349.98         6.8412
   350.12         6.8723
   350.26         6.9120
   350.40         6.9527
   350.54         6.9895
   350.68         7.0204
   350.82         7.0441
   350.96         7.0593
   351.10         7.0646
   351.24         7.0593
   351.38         7.0441
   351.52         7.0204
   351.66         6.9895
   351.80         6.9527
   351.94         6.9120
   352.08         6.8723
   352.22         6.8412
   352.36         6.8289
   352.50         6.8454
   352.64         6.8962
   352.78         6.9848
   352.92         7.1134
   353.06         7.2777
   353.20         7.4669
   353.34         7.6658
   353.48         7.8579
   353.62         8.0314
   353.76         8.1818
   353.90         8.3083
   354.04         8.4115
   354.18         8.4908
   354.32         8.5441
   354.46         8.5686
   354.60         8.5622
   354.74         8.5238
   354.88         8.4563
   355.02         8.3656
   355.16         8.2582
   355.30         8.1403
   355.44         8.0165
   355.58         7.8889
   355.72         7.7586
   355.86         7.6274
   356.00         7.4983
   356.14         7.3750
   356.28         7.2610
   356.42         7.1563
   356.56         7.0560
   356.70         6.9545
   356.84         6.8484
   356.98         6.7370
   357.12         6.6211
   357.26         6.5014
   357.40         6.3790
   357.54         6.2563
   357.68         6.1361
   357.82         6.0216
   357.96         5.9179
   358.10         5.8323
   358.24         5.7737
   358.38         5.7530
   358.52         5.7815
   358.66         5.8661
   358.80         6.0061
   358.94         6.1954
   359.08         6.4217
   359.22         6.6670
   359.36         6.9117
   359.50         7.1370
   359.64         7.3261
   359.78         7.4654
   359.92         7.5460
   360.06         7.5659
   360.20         7.5304
   360.34         7.4499
   360.48         7.3368
   360.62         7.2027
   360.76         7.0590
   360.90         6.9184
   361.04         6.7931
   361.18         6.6918
   361.32         6.6210
   361.46         6.5875
   361.60         6.5974
   361.74         6.6509
   361.88         6.7411
   362.02         6.8562
   362.16         6.9823
   362.30         7.1057
   362.44         7.2149
   362.58         7.3038
   362.72         7.3718
   362.86         7.4226
   363.00         7.4618
   363.14         7.4948
   363.28         7.5263
   363.42         7.5613
   363.56         7.6034
   363.70         7.6531
   363.84         7.7088
   363.98         7.7672
   364.12         7.8245
   364.26         7.8773
   364.40         7.9231
   364.54         7.9620
   364.68         7.9998
   364.82         8.0458
   364.96         8.1092
   365.10         8.1973
   365.24         8.3129
   365.38         8.4519
   365.52         8.6043
   365.66         8.7573
   365.80         8.8969
   365.94         9.0101
   366.08         9.0892
   366.22         9.1344
   366.36         9.1517
   366.50         9.1495
   366.64         9.1343
   366.78         9.1099
   366.92         9.0774
   367.06         9.0354
   367.20         8.9822
   367.34         8.9163
   367.48         8.8360
   367.62         8.7401
   367.76         8.6302
   367.90         8.5115
   368.04         8.3937
   368.18         8.2894
   368.32         8.2111
   368.46         8.1671
   368.60         8.1625
   368.74         8.2022
   368.88         8.2861
   369.02         8.4059
   369.16         8.5470
   369.30         8.6923
   369.44         8.8257
   369.58         8.9328
   369.72         9.0029
   369.86         9.0299
   370.00         9.0143
   370.14         8.9628
   370.28         8.8881
   370.42         8.8065
   370.56         8.7328
   370.70         8.6738
   370.84         8.6277
   370.98         8.5870
   371.12         8.5438
   371.26         8.4937
   371.40         8.4351
   371.54         8.3658
   371.68         8.2832
   371.82         8.1878
   371.96         8.0836
   372.10         7.9742
   372.24         7.8614
   372.38         7.7455
   372.52         7.6278
   372.66         7.5119
   372.80         7.4015
   372.94         7.2990
   373.08         7.2040
   373.22         7.1132
   373.36         7.0218
   373.50         6.9271
   373.64         6.8308
   373.78         6.7379
   373.92         6.6542
   374.06         6.5867
   374.20         6.5430
   374.34         6.5302
   374.48         6.5529
   374.62         6.6095
   374.76         6.6926
   374.90         6.7950
   375.04         6.9132
   375.18         7.0462
   375.32         7.1911
   375.46         7.3404
   375.60         7.4834
   375.74         7.6097
   375.88         7.7112
   376.02         7.7848
   376.16         7.8357
   376.30         7.8765
   376.44         7.9236
   376.58         7.9938
   376.72         8.1015
   376.86         8.2535
   377.00         8.4470
   377.14         8.6716
   377.28         8.9140
   377.42         9.1592
   377.56         9.3903
   377.70         9.5887
   377.84         9.7388
   377.98         9.8308
   378.12         9.8612
   378.26         9.8299
   378.40         9.7395
   378.54         9.5945
   378.68         9.4041
   378.82         9.1826
   378.96         8.9481
   379.10         8.7206
   379.24         8.5204
   379.38         8.3648
   379.52         8.2651
   379.66         8.2263
   379.80         8.2491
   379.94         8.3291
   380.08         8.4549
   380.22         8.6096
   380.36         8.7741
   380.50         8.9285
   380.64         9.0533
   380.78         9.1295
   380.92         9.1421
   381.06         9.0840
   381.20         8.9577
   381.34         8.7732
   381.48         8.5437
   381.62         8.2827
   381.76         8.0032
   381.90         7.7167
   382.04         7.4322
   382.18         7.1570
   382.32         6.8973
   382.46         6.6585
   382.60         6.4428
   382.74         6.2487
   382.88         6.0746
   383.02         5.9234
   383.16         5.8051
   383.30         5.7341
   383.44         5.7243
   383.58         5.7860
   383.72         5.9238
   383.86         6.1336
   384.00         6.4039
   384.14         6.7177
   384.28         7.0549
   384.42         7.3932
   384.56         7.7096
   384.70         7.9819
   384.84         8.1906
   384.98         8.3255
   385.12         8.3878
   385.26         8.3888
   385.40         8.3460
   385.54         8.2811
   385.68         8.2158
   385.82         8.1681
   385.96         8.1471
   386.10         8.1529
   386.24         8.1797
   386.38         8.2202
   386.52         8.2660
   386.66         8.3076
   386.80         8.3354
   386.94         8.3414
   387.08         8.3210
   387.22         8.2741
   387.36         8.2029
   387.50         8.1122
   387.64         8.0082
   387.78         7.8967
   387.92         7.7835
   388.06         7.6757
   388.20         7.5817
   388.34         7.5087
   388.48         7.4627
   388.62         7.4493
   388.76         7.4723
   388.90         7.5336
   389.04         7.6324
   389.18         7.7624
   389.32         7.9131
   389.46         8.0732
   389.60         8.2326
   389.74         8.3840
   389.88         8.5235
   390.02         8.6502
   390.16         8.7659
   390.30         8.8761
   390.44         8.9878
   390.58         9.1065
   390.72         9.2316
   390.86         9.3541
   391.00         9.4603
   391.14         9.5372
   391.28         9.5744
   391.42         9.5632
   391.56         9.4950
   391.70         9.3609
   391.84         9.1529
   391.98         8.8656
   392.12         8.4998
   392.26         8.0645
   392.40         7.5754
   392.54         7.0540
   392.68         6.5269
   392.82         6.0245
   392.96         5.5776
   393.10         5.2137
   393.24         4.9545
   393.38         4.8155
   393.52         4.8058
   393.66         4.9266
   393.80         5.1705
   393.94         5.5210
   394.08         5.9532
   394.22         6.4358
   394.36         6.9365
   394.50         7.4249
   394.64         7.8753
   394.78         8.2676
   394.92         8.5862
   395.06         8.8177
   395.20         8.9514
   395.34         8.9797
   395.48         8.8977
   395.62         8.7035
   395.76         8.4010
   395.90         8.0052
   396.04         7.5423
   396.18         7.0471
   396.32         6.5599
   396.46         6.1241
   396.60         5.7817
   396.74         5.5674
   396.88         5.5047
   397.02         5.6038
   397.16         5.8594
   397.30         6.2524
   397.44         6.7531
   397.58         7.3246
   397.72         7.9276
   397.86         8.5262
   398.00         9.0907
   398.14         9.5997
   398.28         10.0412
   398.42         10.4124
   398.56         10.7174
   398.70         10.9656
   398.84         11.1704
   398.98         11.3452
   399.12         11.5009
   399.26         11.6424
   399.40         11.7687
   399.54         11.8755
   399.68         11.9589
   399.82         12.0177
   399.96         12.0533
   400.10         12.0702
   400.24         12.0737
   400.38         12.0693
   400.52         12.0615
   400.66         12.0547
   400.80         12.0527
   400.94         12.0582
   401.08         12.0731
   401.22         12.1002
   401.36         12.1419
   401.50         12.1978
   401.64         12.2635
   401.78         12.3309
   401.92         12.3894
   402.06         12.4289
   402.20         12.4424
   402.34         12.4278
   402.48         12.3880
   402.62         12.3310
   402.76         12.2671
   402.90         12.2050
   403.04         12.1507
   403.18         12.1073
   403.32         12.0736
   403.46         12.0452
   403.60         12.0187
   403.74         11.9930
   403.88         11.9686
   404.02         11.9453
   404.16         11.9215
   404.30         11.8946
   404.44         11.8610
   404.58         11.8193
   404.72         11.7722
   404.86         11.7255
   405.00         11.6841
   405.14         11.6482
   405.28         11.6131
   405.42         11.5715
   405.56         11.5189
   405.70         11.4556
   405.84         11.3851
   405.98         11.3122
   406.12         11.2457
   406.26         11.1964
   406.40         11.1706
   406.54         11.1661
   406.68         11.1764
   406.82         11.1971
   406.96         11.2285
   407.10         11.2723
   407.24         11.3293
   407.38         11.3994
   407.52         11.4830
   407.66         11.5812
   407.80         11.6965
   407.94         11.8309
   408.08         11.9836
   408.22         12.1479
   408.36         12.3107
   408.50         12.4550
   408.64         12.5633
   408.78         12.6204
   408.92         12.6124
   409.06         12.5303
   409.20         12.3746
   409.34         12.1588
   409.48         11.9058
   409.62         11.6406
   409.76         11.3865
   409.90         11.1658
   410.04         10.9992
   410.18         10.9026
   410.32         10.8855
   410.46         10.9482
   410.60         11.0819
   410.74         11.2714
   410.88         11.4973
   411.02         11.7379
   411.16         11.9720
   411.30         12.1805
   411.44         12.3485
   411.58         12.4685
   411.72         12.5412
   411.86         12.5718
   412.00         12.5656
   412.14         12.5262
   412.28         12.4582
   412.42         12.3699
   412.56         12.2741
   412.70         12.1850
   412.84         12.1160
   412.98         12.0749
   413.12         12.0614
   413.26         12.0703
   413.40         12.0950
   413.54         12.1303
   413.68         12.1706
   413.82         12.2103
   413.96         12.2438
   414.10         12.2659
   414.24         12.2714
   414.38         12.2563
   414.52         12.2186
   414.66         12.1610
   414.80         12.0923
   414.94         12.0262
   415.08         11.9771
   415.22         11.9549
   415.36         11.9625
   415.50         11.9975
   415.64         12.0549
   415.78         12.1290
   415.92         12.2125
   416.06         12.2963
   416.20         12.3681
   416.34         12.4149
   416.48         12.4276
   416.62         12.4023
   416.76         12.3408
   416.90         12.2500
   417.04         12.1407
   417.18         12.0256
   417.32         11.9166
   417.46         11.8237
   417.60         11.7524
   417.74         11.7043
   417.88         11.6783
   418.02         11.6723
   418.16         11.6840
   418.30         11.7095
   418.44         11.7411
   418.58         11.7695
   418.72         11.7866
   418.86         11.7885
   419.00         11.7761
   419.14         11.7534
   419.28         11.7256
   419.42         11.6982
   419.56         11.6764
   419.70         11.6636
   419.84         11.6635
   419.98         11.6810
   420.12         11.7212
   420.26         11.7867
   420.40         11.8764
   420.54         11.9852
   420.68         12.1053
   420.82         12.2271
   420.96         12.3392
   421.10         12.4297
   421.24         12.4866
   421.38         12.4990
   421.52         12.4576
   421.66         12.3595
   421.80         12.2111
   421.94         12.0265
   422.08         11.8225
   422.22         11.6161
   422.36         11.4245
   422.50         11.2633
   422.64         11.1448
   422.78         11.0756
   422.92         11.0571
   423.06         11.0868
   423.20         11.1603
   423.34         11.2698
   423.48         11.4029
   423.62         11.5412
   423.76         11.6635
   423.90         11.7511
   424.04         11.7940
   424.18         11.7938
   424.32         11.7615
   424.46         11.7104
   424.60         11.6501
   424.74         11.5848
   424.88         11.5164
   425.02         11.4479
   425.16         11.3851
   425.30         11.3357
   425.44         11.3070
   425.58         11.3028
   425.72         11.3218
   425.86         11.3554
   426.00         11.3905
   426.14         11.4125
   426.28         11.4103
   426.42         11.3807
   426.56         11.3288
   426.70         11.2650
   426.84         11.1996
   426.98         11.1400
   427.12         11.0917
   427.26         11.0581
   427.40         11.0402
   427.54         11.0380
   427.68         11.0509
   427.82         11.0744
   427.96         11.0998
   428.10         11.1165
   428.24         11.1156
   428.38         11.0908
   428.52         11.0388
   428.66         10.9600
   428.80         10.8577
   428.94         10.7363
   429.08         10.6005
   429.22         10.4537
   429.36         10.2970
   429.50         10.1294
   429.64         9.9504
   429.78         9.7606
   429.92         9.5626
   430.06         9.3644
   430.20         9.1802
   430.34         9.0297
   430.48         8.9350
   430.62         8.9173
   430.76         8.9923
   430.90         9.1656
   431.04         9.4295
   431.18         9.7636
   431.32         10.1378
   431.46         10.5188
   431.60         10.8775
   431.74         11.1929
   431.88         11.4525
   432.02         11.6503
   432.16         11.7869
   432.30         11.8694
   432.44         11.9084
   432.58         11.9150
   432.72         11.8977
   432.86         11.8603
   433.00         11.8042
   433.14         11.7306
   433.28         11.6413
   433.42         11.5403
   433.56         11.4328
   433.70         11.3262
   433.84         11.2300
   433.98         11.1544
   434.12         11.1107
   434.26         11.1091
   434.40         11.1564
   434.54         11.2523
   434.68         11.3892
   434.82         11.5542
   434.96         11.7327
   435.10         11.9119
   435.24         12.0818
   435.38         12.2373
   435.52         12.3783
   435.66         12.5087
   435.80         12.6333
   435.94         12.7542
   436.08         12.8695
   436.22         12.9720
   436.36         13.0524
   436.50         13.1019
   436.64         13.1148
   436.78         13.0911
   436.92         13.0354
   437.06         12.9516
   437.20         12.8395
   437.34         12.6973
   437.48         12.5272
   437.62         12.3374
   437.76         12.1388
   437.90         11.9422
   438.04         11.7589
   438.18         11.6006
   438.32         11.4789
   438.46         11.4043
   438.60         11.3837
   438.74         11.4186
   438.88         11.5050
   439.02         11.6336
   439.16         11.7904
   439.30         11.9566
   439.44         12.1117
   439.58         12.2369
   439.72         12.3182
   439.86         12.3510
   440.00         12.3429
   440.14         12.3094
   440.28         12.2657
   440.42         12.2232
   440.56         12.1904
   440.70         12.1753
   440.84         12.1859
   440.98         12.2272
   441.12         12.2981
   441.26         12.3921
   441.40         12.4996
   441.54         12.6109
   441.68         12.7178
   441.82         12.8149
   441.96         12.8992
   442.10         12.9693
   442.24         13.0246
   442.38         13.0641
   442.52         13.0876
   442.66         13.0967
   442.80         13.0929
   442.94         13.0769
   443.08         13.0491
   443.22         13.0138
   443.36         12.9778
   443.50         12.9470
   443.64         12.9249
   443.78         12.9132
   443.92         12.9147
   444.06         12.9312
   444.20         12.9606
   444.34         12.9967
   444.48         13.0302
   444.62         13.0506
   444.76         13.0493
   444.90         13.0221
   445.04         12.9692
   445.18         12.8949
   445.32         12.8056
   445.46         12.7089
   445.60         12.6131
   445.74         12.5270
   445.88         12.4602
   446.02         12.4223
   446.16         12.4212
   446.30         12.4610
   446.44         12.5421
   446.58         12.6615
   446.72         12.8104
   446.86         12.9754
   447.00         13.1406
   447.14         13.2932
   447.28         13.4254
   447.42         13.5344
   447.56         13.6198
   447.70         13.6814
   447.84         13.7195
   447.98         13.7358
   448.12         13.7331
   448.26         13.7146
   448.40         13.6842
   448.54         13.6486
   448.68         13.6150
   448.82         13.5877
   448.96         13.5674
   449.10         13.5542
   449.24         13.5497
   449.38         13.5558
   449.52         13.5760
   449.66         13.6159
   449.80         13.6799
   449.94         13.7673
   450.08         13.8712
   450.22         13.9797
   450.36         14.0803
   450.50         14.1636
   450.64         14.2238
   450.78         14.2586
   450.92         14.2684
   451.06         14.2547
   451.20         14.2194
   451.34         14.1635
   451.48         14.0875
   451.62         13.9921
   451.76         13.8795
   451.90         13.7522
   452.04         13.6126
   452.18         13.4630
   452.32         13.3049
   452.46         13.1425
   452.60         12.9849
   452.74         12.8436
   452.88         12.7300
   453.02         12.6546
   453.16         12.6250
   453.30         12.6434
   453.44         12.7053
   453.58         12.7998
   453.72         12.9115
   453.86         13.0247
   454.00         13.1256
   454.14         13.2049
   454.28         13.2571
   454.42         13.2807
   454.56         13.2782
   454.70         13.2563
   454.84         13.2244
   454.98         13.1931
   455.12         13.1735
   455.26         13.1734
   455.40         13.1953
   455.54         13.2388
   455.68         13.3018
   455.82         13.3792
   455.96         13.4629
   456.10         13.5443
   456.24         13.6177
   456.38         13.6808
   456.52         13.7337
   456.66         13.7764
   456.80         13.8084
   456.94         13.8281
   457.08         13.8336
   457.22         13.8244
   457.36         13.8017
   457.50         13.7661
   457.64         13.7182
   457.78         13.6603
   457.92         13.5964
   458.06         13.5313
   458.20         13.4700
   458.34         13.4166
   458.48         13.3735
   458.62         13.3425
   458.76         13.3247
