# File HD9972
# Wavelength [nm]    Normalized Amplitude
   349.70         4.7513
   349.84         4.7475
   349.98         4.7467
   350.12         4.7467
   350.26         4.7460
   350.40         4.7441
   350.54         4.7412
   350.68         4.7384
   350.82         4.7369
   350.96         4.7365
   351.10         4.7364
   351.24         4.7365
   351.38         4.7369
   351.52         4.7384
   351.66         4.7412
   351.80         4.7441
   351.94         4.7460
   352.08         4.7467
   352.22         4.7467
   352.36         4.7475
   352.50         4.7513
   352.64         4.7607
   352.78         4.7779
   352.92         4.8034
   353.06         4.8352
   353.20         4.8694
   353.34         4.9018
   353.48         4.9289
   353.62         4.9490
   353.76         4.9631
   353.90         4.9729
   354.04         4.9796
   354.18         4.9840
   354.32         4.9863
   354.46         4.9875
   354.60         4.9886
   354.74         4.9907
   354.88         4.9939
   355.02         4.9970
   355.16         4.9987
   355.30         4.9984
   355.44         4.9959
   355.58         4.9910
   355.72         4.9828
   355.86         4.9699
   356.00         4.9516
   356.14         4.9284
   356.28         4.9007
   356.42         4.8690
   356.56         4.8325
   356.70         4.7911
   356.84         4.7464
   356.98         4.7010
   357.12         4.6570
   357.26         4.6154
   357.40         4.5763
   357.54         4.5400
   357.68         4.5076
   357.82         4.4811
   357.96         4.4617
   358.10         4.4498
   358.24         4.4462
   358.38         4.4514
   358.52         4.4643
   358.66         4.4835
   358.80         4.5076
   358.94         4.5350
   359.08         4.5634
   359.22         4.5911
   359.36         4.6171
   359.50         4.6409
   359.64         4.6611
   359.78         4.6766
   359.92         4.6877
   360.06         4.6953
   360.20         4.7015
   360.34         4.7082
   360.48         4.7163
   360.62         4.7259
   360.76         4.7367
   360.90         4.7482
   361.04         4.7586
   361.18         4.7665
   361.32         4.7729
   361.46         4.7799
   361.60         4.7885
   361.74         4.7993
   361.88         4.8121
   362.02         4.8259
   362.16         4.8389
   362.30         4.8496
   362.44         4.8574
   362.58         4.8621
   362.72         4.8639
   362.86         4.8631
   363.00         4.8594
   363.14         4.8510
   363.28         4.8369
   363.42         4.8179
   363.56         4.7965
   363.70         4.7763
   363.84         4.7605
   363.98         4.7510
   364.12         4.7492
   364.26         4.7576
   364.40         4.7776
   364.54         4.8086
   364.68         4.8493
   364.82         4.8982
   364.96         4.9534
   365.10         5.0119
   365.24         5.0688
   365.38         5.1198
   365.52         5.1618
   365.66         5.1934
   365.80         5.2146
   365.94         5.2264
   366.08         5.2295
   366.22         5.2246
   366.36         5.2125
   366.50         5.1937
   366.64         5.1694
   366.78         5.1418
   366.92         5.1122
   367.06         5.0814
   367.20         5.0494
   367.34         5.0164
   367.48         4.9828
   367.62         4.9493
   367.76         4.9165
   367.90         4.8857
   368.04         4.8600
   368.18         4.8424
   368.32         4.8338
   368.46         4.8337
   368.60         4.8417
   368.74         4.8583
   368.88         4.8836
   369.02         4.9164
   369.16         4.9536
   369.30         4.9909
   369.44         5.0246
   369.58         5.0531
   369.72         5.0764
   369.86         5.0951
   370.00         5.1103
   370.14         5.1245
   370.28         5.1412
   370.42         5.1647
   370.56         5.1999
   370.70         5.2486
   370.84         5.3074
   370.98         5.3699
   371.12         5.4297
   371.26         5.4825
   371.40         5.5255
   371.54         5.5586
   371.68         5.5837
   371.82         5.6042
   371.96         5.6235
   372.10         5.6427
   372.24         5.6603
   372.38         5.6723
   372.52         5.6766
   372.66         5.6747
   372.80         5.6726
   372.94         5.6789
   373.08         5.7011
   373.22         5.7426
   373.36         5.8012
   373.50         5.8708
   373.64         5.9443
   373.78         6.0133
   373.92         6.0690
   374.06         6.1063
   374.20         6.1245
   374.34         6.1264
   374.48         6.1169
   374.62         6.1030
   374.76         6.0930
   374.90         6.0982
   375.04         6.1326
   375.18         6.2086
   375.32         6.3301
   375.46         6.4894
   375.60         6.6681
   375.74         6.8408
   375.88         6.9800
   376.02         7.0634
   376.16         7.0797
   376.30         7.0308
   376.44         6.9323
   376.58         6.8107
   376.72         6.6991
   376.86         6.6291
   377.00         6.6245
   377.14         6.7002
   377.28         6.8615
   377.42         7.1039
   377.56         7.4134
   377.70         7.7674
   377.84         8.1354
   377.98         8.4833
   378.12         8.7777
   378.26         8.9907
   378.40         9.1018
   378.54         9.0997
   378.68         8.9854
   378.82         8.7724
   378.96         8.4850
   379.10         8.1551
   379.24         7.8190
   379.38         7.5134
   379.52         7.2717
   379.66         7.1215
   379.80         7.0829
   379.94         7.1660
   380.08         7.3685
   380.22         7.6767
   380.36         8.0681
   380.50         8.5148
   380.64         8.9855
   380.78         9.4489
   380.92         9.8755
   381.06         10.2411
   381.20         10.5293
   381.34         10.7323
   381.48         10.8489
   381.62         10.8822
   381.76         10.8368
   381.90         10.7171
   382.04         10.5268
   382.18         10.2688
   382.32         9.9476
   382.46         9.5708
   382.60         9.1503
   382.74         8.7028
   382.88         8.2517
   383.02         7.8261
   383.16         7.4573
   383.30         7.1741
   383.44         7.0000
   383.58         6.9501
   383.72         7.0304
   383.86         7.2367
   384.00         7.5561
   384.14         7.9689
   384.28         8.4491
   384.42         8.9676
   384.56         9.4946
   384.70         10.0027
   384.84         10.4703
   384.98         10.8845
   385.12         11.2415
   385.26         11.5449
   385.40         11.8018
   385.54         12.0208
   385.68         12.2103
   385.82         12.3771
   385.96         12.5241
   386.10         12.6489
   386.24         12.7451
   386.38         12.8058
   386.52         12.8251
   386.66         12.7974
   386.80         12.7175
   386.94         12.5800
   387.08         12.3807
   387.22         12.1170
   387.36         11.7889
   387.50         11.3991
   387.64         10.9532
   387.78         10.4602
   387.92         9.9333
   388.06         9.3902
   388.20         8.8542
   388.34         8.3516
   388.48         7.9089
   388.62         7.5502
   388.76         7.2954
   388.90         7.1594
   389.04         7.1509
   389.18         7.2696
   389.32         7.5072
   389.46         7.8483
   389.60         8.2734
   389.74         8.7601
   389.88         9.2848
   390.02         9.8238
   390.16         10.3547
   390.30         10.8601
   390.44         11.3282
   390.58         11.7522
   390.72         12.1282
   390.86         12.4542
   391.00         12.7296
   391.14         12.9561
   391.28         13.1362
   391.42         13.2722
   391.56         13.3644
   391.70         13.4109
   391.84         13.4052
   391.98         13.3356
   392.12         13.1884
   392.26         12.9533
   392.40         12.6314
   392.54         12.2382
   392.68         11.8028
   392.82         11.3635
   392.96         10.9615
   393.10         10.6347
   393.24         10.4134
   393.38         10.3169
   393.52         10.3516
   393.66         10.5104
   393.80         10.7727
   393.94         11.1063
   394.08         11.4718
   394.22         11.8275
   394.36         12.1338
   394.50         12.3587
   394.64         12.4834
   394.78         12.5051
   394.92         12.4336
   395.06         12.2856
   395.20         12.0753
   395.34         11.8107
   395.48         11.4918
   395.62         11.1138
   395.76         10.6725
   395.90         10.1704
   396.04         9.6200
   396.18         9.0440
   396.32         8.4735
   396.46         7.9439
   396.60         7.4919
   396.74         7.1501
   396.88         6.9433
   397.02         6.8864
   397.16         6.9838
   397.30         7.2290
   397.44         7.6035
   397.58         8.0789
   397.72         8.6215
   397.86         9.1971
   398.00         9.7740
   398.14         10.3260
   398.28         10.8342
   398.42         11.2890
   398.56         11.6895
   398.70         12.0406
   398.84         12.3500
   398.98         12.6244
   399.12         12.8692
   399.26         13.0882
   399.40         13.2843
   399.54         13.4594
   399.68         13.6158
   399.82         13.7554
   399.96         13.8789
   400.10         13.9870
   400.24         14.0806
   400.38         14.1612
   400.52         14.2308
   400.66         14.2918
   400.80         14.3465
   400.94         14.3968
   401.08         14.4442
   401.22         14.4897
   401.36         14.5348
   401.50         14.5805
   401.64         14.6258
   401.78         14.6678
   401.92         14.7028
   402.06         14.7283
   402.20         14.7446
   402.34         14.7543
   402.48         14.7611
   402.62         14.7692
   402.76         14.7819
   402.90         14.8014
   403.04         14.8283
   403.18         14.8616
   403.32         14.8973
   403.46         14.9296
   403.60         14.9532
   403.74         14.9646
   403.88         14.9635
   404.02         14.9508
   404.16         14.9273
   404.30         14.8934
   404.44         14.8504
   404.58         14.8022
   404.72         14.7540
   404.86         14.7109
   405.00         14.6747
   405.14         14.6432
   405.28         14.6114
   405.42         14.5742
   405.56         14.5273
   405.70         14.4680
   405.84         14.3952
   405.98         14.3092
   406.12         14.2127
   406.26         14.1100
   406.40         14.0037
   406.54         13.8931
   406.68         13.7760
   406.82         13.6516
   406.96         13.5218
   407.10         13.3892
   407.24         13.2554
   407.38         13.1208
   407.52         12.9842
   407.66         12.8431
   407.80         12.6949
   407.94         12.5372
   408.08         12.3675
   408.22         12.1813
   408.36         11.9725
   408.50         11.7325
   408.64         11.4523
   408.78         11.1235
   408.92         10.7398
   409.06         10.3006
   409.20         9.8148
   409.34         9.3029
   409.48         8.7928
   409.62         8.3155
   409.76         7.9008
   409.90         7.5763
   410.04         7.3642
   410.18         7.2798
   410.32         7.3293
   410.46         7.5091
   410.60         7.8060
   410.74         8.1984
   410.88         8.6582
   411.02         9.1542
   411.16         9.6570
   411.30         10.1424
   411.44         10.5927
   411.58         10.9981
   411.72         11.3558
   411.86         11.6679
   412.00         11.9382
   412.14         12.1698
   412.28         12.3666
   412.42         12.5349
   412.56         12.6828
   412.70         12.8195
   412.84         12.9529
   412.98         13.0877
   413.12         13.2250
   413.26         13.3629
   413.40         13.4986
   413.54         13.6293
   413.68         13.7526
   413.82         13.8663
   413.96         13.9677
   414.10         14.0528
   414.24         14.1176
   414.38         14.1596
   414.52         14.1783
   414.66         14.1758
   414.80         14.1560
   414.94         14.1255
   415.08         14.0914
   415.22         14.0597
   415.36         14.0335
   415.50         14.0139
   415.64         14.0012
   415.78         13.9965
   415.92         14.0002
   416.06         14.0104
   416.20         14.0232
   416.34         14.0334
   416.48         14.0361
   416.62         14.0271
   416.76         14.0043
   416.90         13.9680
   417.04         13.9207
   417.18         13.8661
   417.32         13.8084
   417.46         13.7521
   417.60         13.7026
   417.74         13.6653
   417.88         13.6452
   418.02         13.6447
   418.16         13.6637
   418.30         13.7004
   418.44         13.7506
   418.58         13.8079
   418.72         13.8664
   418.86         13.9216
   419.00         13.9700
   419.14         14.0088
   419.28         14.0357
   419.42         14.0498
   419.56         14.0512
   419.70         14.0416
   419.84         14.0245
   419.98         14.0047
   420.12         13.9871
   420.26         13.9758
   420.40         13.9734
   420.54         13.9802
   420.68         13.9950
   420.82         14.0162
   420.96         14.0420
   421.10         14.0693
   421.24         14.0936
   421.38         14.1090
   421.52         14.1099
   421.66         14.0930
   421.80         14.0590
   421.94         14.0114
   422.08         13.9542
   422.22         13.8911
   422.36         13.8265
   422.50         13.7653
   422.64         13.7119
   422.78         13.6696
   422.92         13.6407
   423.06         13.6273
   423.20         13.6299
   423.34         13.6462
   423.48         13.6705
   423.62         13.6954
   423.76         13.7127
   423.90         13.7168
   424.04         13.7056
   424.18         13.6817
   424.32         13.6509
   424.46         13.6187
   424.60         13.5886
   424.74         13.5630
   424.88         13.5445
   425.02         13.5365
   425.16         13.5414
   425.30         13.5601
   425.44         13.5920
   425.58         13.6349
   425.72         13.6847
   425.86         13.7341
   426.00         13.7741
   426.14         13.7976
   426.28         13.8006
   426.42         13.7828
   426.56         13.7471
   426.70         13.6987
   426.84         13.6435
   426.98         13.5865
   427.12         13.5316
   427.26         13.4819
   427.40         13.4393
   427.54         13.4042
   427.68         13.3749
   427.82         13.3488
   427.96         13.3225
   428.10         13.2918
   428.24         13.2528
   428.38         13.2024
   428.52         13.1390
   428.66         13.0635
   428.80         12.9786
   428.94         12.8882
   429.08         12.7975
   429.22         12.7118
   429.36         12.6350
   429.50         12.5689
   429.64         12.5133
   429.78         12.4672
   429.92         12.4293
   430.06         12.3972
   430.20         12.3672
   430.34         12.3351
   430.48         12.2984
   430.62         12.2563
   430.76         12.2083
   430.90         12.1538
   431.04         12.0913
   431.18         12.0181
   431.32         11.9317
   431.46         11.8310
   431.60         11.7166
   431.74         11.5900
   431.88         11.4515
   432.02         11.2997
   432.16         11.1318
   432.30         10.9445
   432.44         10.7330
   432.58         10.4915
   432.72         10.2132
   432.86         9.8930
   433.00         9.5312
   433.14         9.1354
   433.28         8.7196
   433.42         8.3034
   433.56         7.9096
   433.70         7.5627
   433.84         7.2865
   433.98         7.1011
   434.12         7.0206
   434.26         7.0523
   434.40         7.1954
   434.54         7.4413
   434.68         7.7738
   434.82         8.1711
   434.96         8.6090
   435.10         9.0645
   435.24         9.5179
   435.38         9.9542
   435.52         10.3632
   435.66         10.7396
   435.80         11.0817
   435.94         11.3894
   436.08         11.6624
   436.22         11.8994
   436.36         12.0995
   436.50         12.2637
   436.64         12.3946
   436.78         12.4970
   436.92         12.5769
   437.06         12.6399
   437.20         12.6890
   437.34         12.7256
   437.48         12.7522
   437.62         12.7727
   437.76         12.7905
   437.90         12.8072
   438.04         12.8230
   438.18         12.8369
   438.32         12.8484
   438.46         12.8579
   438.60         12.8669
   438.74         12.8762
   438.88         12.8868
   439.02         12.8990
   439.16         12.9132
   439.30         12.9295
   439.44         12.9478
   439.58         12.9683
   439.72         12.9909
   439.86         13.0146
   440.00         13.0392
   440.14         13.0647
   440.28         13.0895
   440.42         13.1103
   440.56         13.1228
   440.70         13.1243
   440.84         13.1146
   440.98         13.0952
   441.12         13.0683
   441.26         13.0360
   441.40         13.0008
   441.54         12.9660
   441.68         12.9366
   441.82         12.9173
   441.96         12.9117
   442.10         12.9207
   442.24         12.9428
   442.38         12.9749
   442.52         13.0132
   442.66         13.0541
   442.80         13.0939
   442.94         13.1287
   443.08         13.1547
   443.22         13.1690
   443.36         13.1708
   443.50         13.1607
   443.64         13.1408
   443.78         13.1143
   443.92         13.0858
   444.06         13.0596
   444.20         13.0395
   444.34         13.0276
   444.48         13.0242
   444.62         13.0284
   444.76         13.0387
   444.90         13.0537
   445.04         13.0711
   445.18         13.0876
   445.32         13.0987
   445.46         13.1007
   445.60         13.0911
   445.74         13.0706
   445.88         13.0427
   446.02         13.0126
   446.16         12.9860
   446.30         12.9670
   446.44         12.9580
   446.58         12.9588
   446.72         12.9664
   446.86         12.9761
   447.00         12.9830
   447.14         12.9837
   447.28         12.9770
   447.42         12.9636
   447.56         12.9447
   447.70         12.9211
   447.84         12.8940
   447.98         12.8655
   448.12         12.8390
   448.26         12.8187
   448.40         12.8087
   448.54         12.8120
   448.68         12.8288
   448.82         12.8560
   448.96         12.8885
   449.10         12.9208
   449.24         12.9494
   449.38         12.9726
   449.52         12.9902
   449.66         13.0039
   449.80         13.0162
   449.94         13.0280
   450.08         13.0386
   450.22         13.0467
   450.36         13.0522
   450.50         13.0550
   450.64         13.0543
   450.78         13.0494
   450.92         13.0402
   451.06         13.0267
   451.20         13.0082
   451.34         12.9839
   451.48         12.9534
   451.62         12.9184
   451.76         12.8827
   451.90         12.8486
   452.04         12.8157
   452.18         12.7822
   452.32         12.7479
   452.46         12.7152
   452.60         12.6881
   452.74         12.6696
   452.88         12.6612
   453.02         12.6626
   453.16         12.6720
   453.30         12.6873
   453.44         12.7064
   453.58         12.7257
   453.72         12.7396
   453.86         12.7420
   454.00         12.7286
   454.14         12.6968
   454.28         12.6468
   454.42         12.5802
   454.56         12.5000
   454.70         12.4117
   454.84         12.3237
   454.98         12.2448
   455.12         12.1821
   455.26         12.1397
   455.40         12.1189
   455.54         12.1191
   455.68         12.1385
   455.82         12.1735
   455.96         12.2187
   456.10         12.2683
   456.24         12.3177
   456.38         12.3646
   456.52         12.4084
   456.66         12.4490
   456.80         12.4851
   456.94         12.5154
   457.08         12.5376
   457.22         12.5493
   457.36         12.5487
   457.50         12.5353
   457.64         12.5100
   457.78         12.4751
   457.92         12.4349
   458.06         12.3933
   458.20         12.3542
   458.34         12.3215
   458.48         12.2985
