# File HZ227
# Wavelength [nm]    Normalized Amplitude
   349.70         5.5793
   349.84         5.5648
   349.98         5.5507
   350.12         5.5359
   350.26         5.5203
   350.40         5.5051
   350.54         5.4913
   350.68         5.4792
   350.82         5.4690
   350.96         5.4620
   351.10         5.4595
   351.24         5.4620
   351.38         5.4690
   351.52         5.4792
   351.66         5.4913
   351.80         5.5051
   351.94         5.5203
   352.08         5.5359
   352.22         5.5507
   352.36         5.5648
   352.50         5.5793
   352.64         5.5965
   352.78         5.6180
   352.92         5.6441
   353.06         5.6735
   353.20         5.7040
   353.34         5.7339
   353.48         5.7623
   353.62         5.7888
   353.76         5.8136
   353.90         5.8375
   354.04         5.8611
   354.18         5.8846
   354.32         5.9078
   354.46         5.9296
   354.60         5.9490
   354.74         5.9648
   354.88         5.9757
   355.02         5.9798
   355.16         5.9746
   355.30         5.9573
   355.44         5.9257
   355.58         5.8792
   355.72         5.8186
   355.86         5.7462
   356.00         5.6654
   356.14         5.5797
   356.28         5.4933
   356.42         5.4111
   356.56         5.3376
   356.70         5.2765
   356.84         5.2299
   356.98         5.1985
   357.12         5.1812
   357.26         5.1742
   357.40         5.1711
   357.54         5.1651
   357.68         5.1513
   357.82         5.1276
   357.96         5.0949
   358.10         5.0573
   358.24         5.0199
   358.38         4.9890
   358.52         4.9709
   358.66         4.9704
   358.80         4.9903
   358.94         5.0306
   359.08         5.0881
   359.22         5.1562
   359.36         5.2263
   359.50         5.2900
   359.64         5.3399
   359.78         5.3702
   359.92         5.3783
   360.06         5.3653
   360.20         5.3355
   360.34         5.2952
   360.48         5.2515
   360.62         5.2108
   360.76         5.1777
   360.90         5.1545
   361.04         5.1411
   361.18         5.1360
   361.32         5.1375
   361.46         5.1446
   361.60         5.1568
   361.74         5.1737
   361.88         5.1944
   362.02         5.2176
   362.16         5.2412
   362.30         5.2625
   362.44         5.2790
   362.58         5.2907
   362.72         5.2992
   362.86         5.3063
   363.00         5.3133
   363.14         5.3211
   363.28         5.3292
   363.42         5.3371
   363.56         5.3449
   363.70         5.3536
   363.84         5.3644
   363.98         5.3787
   364.12         5.3979
   364.26         5.4220
   364.40         5.4507
   364.54         5.4840
   364.68         5.5223
   364.82         5.5663
   364.96         5.6175
   365.10         5.6765
   365.24         5.7423
   365.38         5.8114
   365.52         5.8791
   365.66         5.9399
   365.80         5.9882
   365.94         6.0208
   366.08         6.0371
   366.22         6.0391
   366.36         6.0291
   366.50         6.0103
   366.64         5.9861
   366.78         5.9596
   366.92         5.9323
   367.06         5.9056
   367.20         5.8808
   367.34         5.8584
   367.48         5.8372
   367.62         5.8158
   367.76         5.7932
   367.90         5.7704
   368.04         5.7499
   368.18         5.7355
   368.32         5.7312
   368.46         5.7406
   368.60         5.7655
   368.74         5.8056
   368.88         5.8590
   369.02         5.9229
   369.16         5.9927
   369.30         6.0619
   369.44         6.1233
   369.58         6.1706
   369.72         6.2002
   369.86         6.2104
   370.00         6.2014
   370.14         6.1754
   370.28         6.1381
   370.42         6.0983
   370.56         6.0651
   370.70         6.0460
   370.84         6.0438
   370.98         6.0554
   371.12         6.0745
   371.26         6.0954
   371.40         6.1149
   371.54         6.1318
   371.68         6.1452
   371.82         6.1545
   371.96         6.1600
   372.10         6.1613
   372.24         6.1568
   372.38         6.1443
   372.52         6.1223
   372.66         6.0912
   372.80         6.0544
   372.94         6.0174
   373.08         5.9845
   373.22         5.9578
   373.36         5.9371
   373.50         5.9199
   373.64         5.9031
   373.78         5.8852
   373.92         5.8659
   374.06         5.8460
   374.20         5.8269
   374.34         5.8114
   374.48         5.8022
   374.62         5.8002
   374.76         5.8046
   374.90         5.8164
   375.04         5.8399
   375.18         5.8809
   375.32         5.9434
   375.46         6.0268
   375.60         6.1239
   375.74         6.2221
   375.88         6.3073
   376.02         6.3677
   376.16         6.3971
   376.30         6.3963
   376.44         6.3740
   376.58         6.3449
   376.72         6.3259
   376.86         6.3325
   377.00         6.3757
   377.14         6.4613
   377.28         6.5881
   377.42         6.7498
   377.56         6.9361
   377.70         7.1329
   377.84         7.3232
   377.98         7.4892
   378.12         7.6144
   378.26         7.6856
   378.40         7.6958
   378.54         7.6446
   378.68         7.5384
   378.82         7.3899
   378.96         7.2169
   379.10         7.0401
   379.24         6.8800
   379.38         6.7539
   379.52         6.6743
   379.66         6.6490
   379.80         6.6810
   379.94         6.7673
   380.08         6.8993
   380.22         7.0640
   380.36         7.2456
   380.50         7.4288
   380.64         7.6010
   380.78         7.7503
   380.92         7.8669
   381.06         7.9451
   381.20         7.9838
   381.34         7.9850
   381.48         7.9532
   381.62         7.8936
   381.76         7.8099
   381.90         7.7031
   382.04         7.5724
   382.18         7.4167
   382.32         7.2363
   382.46         7.0332
   382.60         6.8112
   382.74         6.5784
   382.88         6.3483
   383.02         6.1398
   383.16         5.9740
   383.30         5.8691
   383.44         5.8370
   383.58         5.8834
   383.72         6.0078
   383.86         6.2027
   384.00         6.4550
   384.14         6.7486
   384.28         7.0659
   384.42         7.3874
   384.56         7.6936
   384.70         7.9670
   384.84         8.1970
   384.98         8.3807
   385.12         8.5216
   385.26         8.6267
   385.40         8.7048
   385.54         8.7643
   385.68         8.8122
   385.82         8.8520
   385.96         8.8835
   386.10         8.9049
   386.24         8.9150
   386.38         8.9136
   386.52         8.8990
   386.66         8.8697
   386.80         8.8250
   386.94         8.7648
   387.08         8.6885
   387.22         8.5938
   387.36         8.4773
   387.50         8.3360
   387.64         8.1671
   387.78         7.9686
   387.92         7.7424
   388.06         7.4964
   388.20         7.2439
   388.34         7.0010
   388.48         6.7842
   388.62         6.6096
   388.76         6.4915
   388.90         6.4402
   389.04         6.4584
   389.18         6.5412
   389.32         6.6787
   389.46         6.8560
   389.60         7.0565
   389.74         7.2630
   389.88         7.4614
   390.02         7.6421
   390.16         7.8005
   390.30         7.9364
   390.44         8.0527
   390.58         8.1532
   390.72         8.2402
   390.86         8.3141
   391.00         8.3742
   391.14         8.4187
   391.28         8.4440
   391.42         8.4457
   391.56         8.4177
   391.70         8.3519
   391.84         8.2385
   391.98         8.0687
   392.12         7.8371
   392.26         7.5444
   392.40         7.1979
   392.54         6.8124
   392.68         6.4097
   392.82         6.0167
   392.96         5.6627
   393.10         5.3756
   393.24         5.1787
   393.38         5.0885
   393.52         5.1127
   393.66         5.2481
   393.80         5.4810
   393.94         5.7898
   394.08         6.1472
   394.22         6.5235
   394.36         6.8885
   394.50         7.2170
   394.64         7.4924
   394.78         7.7070
   394.92         7.8602
   395.06         7.9539
   395.20         7.9897
   395.34         7.9667
   395.48         7.8819
   395.62         7.7307
   395.76         7.5108
   395.90         7.2266
   396.04         6.8916
   396.18         6.5272
   396.32         6.1608
   396.46         5.8229
   396.60         5.5430
   396.74         5.3470
   396.88         5.2531
   397.02         5.2701
   397.16         5.3966
   397.30         5.6209
   397.44         5.9227
   397.58         6.2754
   397.72         6.6503
   397.86         7.0217
   398.00         7.3695
   398.14         7.6798
   398.28         7.9457
   398.42         8.1676
   398.56         8.3513
   398.70         8.5043
   398.84         8.6342
   398.98         8.7475
   399.12         8.8487
   399.26         8.9395
   399.40         9.0182
   399.54         9.0827
   399.68         9.1322
   399.82         9.1685
   399.96         9.1960
   400.10         9.2202
   400.24         9.2455
   400.38         9.2748
   400.52         9.3096
   400.66         9.3499
   400.80         9.3940
   400.94         9.4396
   401.08         9.4849
   401.22         9.5281
   401.36         9.5684
   401.50         9.6061
   401.64         9.6406
   401.78         9.6693
   401.92         9.6879
   402.06         9.6938
   402.20         9.6876
   402.34         9.6724
   402.48         9.6521
   402.62         9.6304
   402.76         9.6104
   402.90         9.5944
   403.04         9.5844
   403.18         9.5814
   403.32         9.5842
   403.46         9.5898
   403.60         9.5960
   403.74         9.6024
   403.88         9.6094
   404.02         9.6174
   404.16         9.6257
   404.30         9.6310
   404.44         9.6297
   404.58         9.6206
   404.72         9.6058
   404.86         9.5894
   405.00         9.5747
   405.14         9.5618
   405.28         9.5486
   405.42         9.5327
   405.56         9.5131
   405.70         9.4904
   405.84         9.4659
   405.98         9.4409
   406.12         9.4169
   406.26         9.3960
   406.40         9.3777
   406.54         9.3586
   406.68         9.3345
   406.82         9.3030
   406.96         9.2648
   407.10         9.2228
   407.24         9.1803
   407.38         9.1409
   407.52         9.1074
   407.66         9.0823
   407.80         9.0671
   407.94         9.0630
   408.08         9.0697
   408.22         9.0843
   408.36         9.1004
   408.50         9.1084
   408.64         9.0964
   408.78         9.0526
   408.92         8.9663
   409.06         8.8299
   409.20         8.6437
   409.34         8.4166
   409.48         8.1647
   409.62         7.9067
   409.76         7.6618
   409.90         7.4499
   410.04         7.2902
   410.18         7.1992
   410.32         7.1869
   410.46         7.2554
   410.60         7.3985
   410.74         7.6028
   410.88         7.8499
   411.02         8.1186
   411.16         8.3870
   411.30         8.6357
   411.44         8.8492
   411.58         9.0185
   411.72         9.1425
   411.86         9.2259
   412.00         9.2753
   412.14         9.2970
   412.28         9.2978
   412.42         9.2866
   412.56         9.2738
   412.70         9.2687
   412.84         9.2781
   412.98         9.3045
   413.12         9.3462
   413.26         9.3993
   413.40         9.4596
   413.54         9.5233
   413.68         9.5860
   413.82         9.6436
   413.96         9.6926
   414.10         9.7301
   414.24         9.7539
   414.38         9.7625
   414.52         9.7553
   414.66         9.7337
   414.80         9.7016
   414.94         9.6649
   415.08         9.6297
   415.22         9.6011
   415.36         9.5827
   415.50         9.5762
   415.64         9.5815
   415.78         9.5967
   415.92         9.6187
   416.06         9.6434
   416.20         9.6652
   416.34         9.6788
   416.48         9.6796
   416.62         9.6650
   416.76         9.6351
   416.90         9.5928
   417.04         9.5431
   417.18         9.4926
   417.32         9.4478
   417.46         9.4135
   417.60         9.3927
   417.74         9.3862
   417.88         9.3939
   418.02         9.4144
   418.16         9.4448
   418.30         9.4805
   418.44         9.5157
   418.58         9.5442
   418.72         9.5612
   418.86         9.5642
   419.00         9.5534
   419.14         9.5316
   419.28         9.5035
   419.42         9.4747
   419.56         9.4503
   419.70         9.4345
   419.84         9.4312
   419.98         9.4434
   420.12         9.4732
   420.26         9.5209
   420.40         9.5842
   420.54         9.6579
   420.68         9.7347
   420.82         9.8057
   420.96         9.8624
   421.10         9.8984
   421.24         9.9097
   421.38         9.8942
   421.52         9.8515
   421.66         9.7847
   421.80         9.7010
   421.94         9.6102
   422.08         9.5210
   422.22         9.4407
   422.36         9.3742
   422.50         9.3247
   422.64         9.2930
   422.78         9.2780
   422.92         9.2773
   423.06         9.2880
   423.20         9.3075
   423.34         9.3334
   423.48         9.3627
   423.62         9.3925
   423.76         9.4189
   423.90         9.4383
   424.04         9.4496
   424.18         9.4552
   424.32         9.4598
   424.46         9.4672
   424.60         9.4779
   424.74         9.4897
   424.88         9.4994
   425.02         9.5051
   425.16         9.5062
   425.30         9.5039
   425.44         9.5005
   425.58         9.4980
   425.72         9.4976
   425.86         9.4985
   426.00         9.4988
   426.14         9.4962
   426.28         9.4889
   426.42         9.4770
   426.56         9.4623
   426.70         9.4482
   426.84         9.4373
   426.98         9.4306
   427.12         9.4280
   427.26         9.4289
   427.40         9.4319
   427.54         9.4357
   427.68         9.4376
   427.82         9.4342
   427.96         9.4221
   428.10         9.3993
   428.24         9.3656
   428.38         9.3220
   428.52         9.2697
   428.66         9.2105
   428.80         9.1456
   428.94         9.0767
   429.08         9.0055
   429.22         8.9332
   429.36         8.8601
   429.50         8.7858
   429.64         8.7099
   429.78         8.6334
   429.92         8.5588
   430.06         8.4906
   430.20         8.4335
   430.34         8.3923
   430.48         8.3725
   430.62         8.3797
   430.76         8.4165
   430.90         8.4807
   431.04         8.5652
   431.18         8.6599
   431.32         8.7530
   431.46         8.8340
   431.60         8.8963
   431.74         8.9374
   431.88         8.9578
   432.02         8.9591
   432.16         8.9435
   432.30         8.9128
   432.44         8.8683
   432.58         8.8084
   432.72         8.7279
   432.86         8.6198
   433.00         8.4796
   433.14         8.3080
   433.28         8.1115
   433.42         7.9012
   433.56         7.6920
   433.70         7.5011
   433.84         7.3445
   433.98         7.2355
   434.12         7.1845
   434.26         7.1981
   434.40         7.2775
   434.54         7.4173
   434.68         7.6062
   434.82         7.8288
   434.96         8.0681
   435.10         8.3081
   435.24         8.5352
   435.38         8.7404
   435.52         8.9201
   435.66         9.0748
   435.80         9.2076
   435.94         9.3215
   436.08         9.4181
   436.22         9.4969
   436.36         9.5560
   436.50         9.5945
   436.64         9.6144
   436.78         9.6203
   436.92         9.6177
   437.06         9.6104
   437.20         9.5993
   437.34         9.5842
   437.48         9.5652
   437.62         9.5438
   437.76         9.5219
   437.90         9.5013
   438.04         9.4836
   438.18         9.4710
   438.32         9.4658
   438.46         9.4704
   438.60         9.4867
   438.74         9.5140
   438.88         9.5490
   439.02         9.5879
   439.16         9.6272
   439.30         9.6638
   439.44         9.6942
   439.58         9.7158
   439.72         9.7274
   439.86         9.7305
   440.00         9.7293
   440.14         9.7285
   440.28         9.7309
   440.42         9.7368
   440.56         9.7455
   440.70         9.7562
   440.84         9.7678
   440.98         9.7793
   441.12         9.7893
   441.26         9.7961
   441.40         9.7979
   441.54         9.7950
   441.68         9.7892
   441.82         9.7832
   441.96         9.7784
   442.10         9.7752
   442.24         9.7730
   442.38         9.7703
   442.52         9.7663
   442.66         9.7611
   442.80         9.7555
   442.94         9.7501
   443.08         9.7454
   443.22         9.7424
   443.36         9.7426
   443.50         9.7466
   443.64         9.7545
   443.78         9.7654
   443.92         9.7785
   444.06         9.7924
   444.20         9.8046
   444.34         9.8116
   444.48         9.8100
   444.62         9.7972
   444.76         9.7723
   444.90         9.7364
   445.04         9.6931
   445.18         9.6468
   445.32         9.6021
   445.46         9.5616
   445.60         9.5268
   445.74         9.4987
   445.88         9.4796
   446.02         9.4722
   446.16         9.4788
   446.30         9.5000
   446.44         9.5342
   446.58         9.5779
   446.72         9.6259
   446.86         9.6713
   447.00         9.7079
   447.14         9.7317
   447.28         9.7412
   447.42         9.7375
   447.56         9.7231
   447.70         9.7006
   447.84         9.6725
   447.98         9.6423
   448.12         9.6142
   448.26         9.5918
   448.40         9.5782
   448.54         9.5756
   448.68         9.5851
   448.82         9.6051
   448.96         9.6325
   449.10         9.6640
   449.24         9.6972
   449.38         9.7306
   449.52         9.7633
   449.66         9.7946
   449.80         9.8245
   449.94         9.8532
   450.08         9.8803
   450.22         9.9051
   450.36         9.9267
   450.50         9.9445
   450.64         9.9587
   450.78         9.9693
   450.92         9.9753
   451.06         9.9755
   451.20         9.9691
   451.34         9.9559
   451.48         9.9359
   451.62         9.9086
   451.76         9.8735
   451.90         9.8302
   452.04         9.7779
   452.18         9.7163
   452.32         9.6468
   452.46         9.5740
   452.60         9.5042
   452.74         9.4436
   452.88         9.3966
   453.02         9.3659
   453.16         9.3528
   453.30         9.3574
   453.44         9.3778
   453.58         9.4099
   453.72         9.4477
   453.86         9.4855
   454.00         9.5178
   454.14         9.5403
   454.28         9.5503
   454.42         9.5473
   454.56         9.5337
   454.70         9.5143
   454.84         9.4940
   454.98         9.4781
   455.12         9.4700
   455.26         9.4710
   455.40         9.4811
   455.54         9.4991
   455.68         9.5236
   455.82         9.5525
   455.96         9.5835
   456.10         9.6139
   456.24         9.6409
   456.38         9.6632
   456.52         9.6816
   456.66         9.6972
   456.80         9.7107
   456.94         9.7219
   457.08         9.7298
   457.22         9.7334
   457.36         9.7311
   457.50         9.7216
   457.64         9.7048
   457.78         9.6822
   457.92         9.6561
   458.06         9.6290
   458.20         9.6025
   458.34         9.5779
   458.48         9.5572
   458.62         9.5425
   458.76         9.5349
   458.90         9.5349
   459.04         9.5416
   459.18         9.5532
   459.32         9.5665
   459.46         9.5787
   459.60         9.5888
   459.74         9.5975
   459.88         9.6069
   460.02         9.6193
   460.16         9.6362
   460.30         9.6586
   460.44         9.6859
   460.58         9.7162
   460.72         9.7472
   460.86         9.7768
   461.00         9.8042
   461.14         9.8283
