# File HZ948
# Wavelength [nm]    Normalized Amplitude
   349.70         6.9544
   349.84         6.9463
   349.98         6.9419
   350.12         6.9381
   350.26         6.9337
   350.40         6.9285
   350.54         6.9225
   350.68         6.9158
   350.82         6.9098
   350.96         6.9056
   351.10         6.9042
   351.24         6.9056
   351.38         6.9098
   351.52         6.9158
   351.66         6.9225
   351.80         6.9285
   351.94         6.9337
   352.08         6.9381
   352.22         6.9419
   352.36         6.9463
   352.50         6.9544
   352.64         6.9696
   352.78         6.9945
   352.92         7.0301
   353.06         7.0760
   353.20         7.1305
   353.34         7.1922
   353.48         7.2588
   353.62         7.3272
   353.76         7.3941
   353.90         7.4563
   354.04         7.5107
   354.18         7.5547
   354.32         7.5859
   354.46         7.6028
   354.60         7.6040
   354.74         7.5895
   354.88         7.5604
   355.02         7.5197
   355.16         7.4705
   355.30         7.4147
   355.44         7.3534
   355.58         7.2877
   355.72         7.2189
   355.86         7.1470
   356.00         7.0714
   356.14         6.9915
   356.28         6.9083
   356.42         6.8238
   356.56         6.7405
   356.70         6.6610
   356.84         6.5876
   356.98         6.5222
   357.12         6.4666
   357.26         6.4213
   357.40         6.3854
   357.54         6.3570
   357.68         6.3329
   357.82         6.3103
   357.96         6.2880
   358.10         6.2681
   358.24         6.2546
   358.38         6.2523
   358.52         6.2658
   358.66         6.2991
   358.80         6.3554
   358.94         6.4338
   359.08         6.5294
   359.22         6.6335
   359.36         6.7363
   359.50         6.8292
   359.64         6.9056
   359.78         6.9604
   359.92         6.9899
   360.06         6.9932
   360.20         6.9718
   360.34         6.9298
   360.48         6.8733
   360.62         6.8091
   360.76         6.7438
   360.90         6.6818
   361.04         6.6266
   361.18         6.5806
   361.32         6.5460
   361.46         6.5242
   361.60         6.5156
   361.74         6.5205
   361.88         6.5387
   362.02         6.5689
   362.16         6.6072
   362.30         6.6474
   362.44         6.6832
   362.58         6.7096
   362.72         6.7247
   362.86         6.7300
   363.00         6.7296
   363.14         6.7270
   363.28         6.7241
   363.42         6.7228
   363.56         6.7247
   363.70         6.7312
   363.84         6.7431
   363.98         6.7615
   364.12         6.7868
   364.26         6.8189
   364.40         6.8569
   364.54         6.8995
   364.68         6.9459
   364.82         6.9964
   364.96         7.0535
   365.10         7.1197
   365.24         7.1962
   365.38         7.2824
   365.52         7.3751
   365.66         7.4676
   365.80         7.5524
   365.94         7.6237
   366.08         7.6794
   366.22         7.7188
   366.36         7.7427
   366.50         7.7519
   366.64         7.7472
   366.78         7.7288
   366.92         7.6979
   367.06         7.6565
   367.20         7.6076
   367.34         7.5546
   367.48         7.5002
   367.62         7.4467
   367.76         7.3971
   367.90         7.3547
   368.04         7.3231
   368.18         7.3054
   368.32         7.3040
   368.46         7.3202
   368.60         7.3535
   368.74         7.4013
   368.88         7.4598
   369.02         7.5237
   369.16         7.5863
   369.30         7.6411
   369.44         7.6830
   369.58         7.7084
   369.72         7.7149
   369.86         7.7024
   370.00         7.6730
   370.14         7.6314
   370.28         7.5848
   370.42         7.5423
   370.56         7.5124
   370.70         7.5011
   370.84         7.5104
   370.98         7.5371
   371.12         7.5750
   371.26         7.6174
   371.40         7.6588
   371.54         7.6946
   371.68         7.7215
   371.82         7.7374
   371.96         7.7421
   372.10         7.7359
   372.24         7.7177
   372.38         7.6863
   372.52         7.6417
   372.66         7.5865
   372.80         7.5274
   372.94         7.4733
   373.08         7.4316
   373.22         7.4069
   373.36         7.4000
   373.50         7.4082
   373.64         7.4265
   373.78         7.4482
   373.92         7.4668
   374.06         7.4782
   374.20         7.4818
   374.34         7.4813
   374.48         7.4815
   374.62         7.4856
   374.76         7.4940
   374.90         7.5088
   375.04         7.5355
   375.18         7.5807
   375.32         7.6500
   375.46         7.7442
   375.60         7.8565
   375.74         7.9725
   375.88         8.0745
   376.02         8.1473
   376.16         8.1822
   376.30         8.1800
   376.44         8.1498
   376.58         8.1083
   376.72         8.0763
   376.86         8.0738
   377.00         8.1148
   377.14         8.2053
   377.28         8.3435
   377.42         8.5236
   377.56         8.7371
   377.70         8.9708
   377.84         9.2065
   377.98         9.4238
   378.12         9.6023
   378.26         9.7225
   378.40         9.7687
   378.54         9.7334
   378.68         9.6195
   378.82         9.4398
   378.96         9.2152
   379.10         8.9715
   379.24         8.7368
   379.38         8.5384
   379.52         8.3982
   379.66         8.3321
   379.80         8.3494
   379.94         8.4516
   380.08         8.6313
   380.22         8.8726
   380.36         9.1529
   380.50         9.4483
   380.64         9.7362
   380.78         9.9958
   380.92         10.2101
   381.06         10.3682
   381.20         10.4659
   381.34         10.5050
   381.48         10.4921
   381.62         10.4354
   381.76         10.3420
   381.90         10.2158
   382.04         10.0573
   382.18         9.8655
   382.32         9.6397
   382.46         9.3810
   382.60         9.0937
   382.74         8.7872
   382.88         8.4782
   383.02         8.1891
   383.16         7.9446
   383.30         7.7676
   383.44         7.6759
   383.58         7.6809
   383.72         7.7867
   383.86         7.9894
   384.00         8.2772
   384.14         8.6329
   384.28         9.0339
   384.42         9.4540
   384.56         9.8651
   384.70         10.2411
   384.84         10.5631
   384.98         10.8226
   385.12         11.0210
   385.26         11.1660
   385.40         11.2689
   385.54         11.3414
   385.68         11.3937
   385.82         11.4336
   385.96         11.4645
   386.10         11.4864
   386.24         11.4968
   386.38         11.4930
   386.52         11.4716
   386.66         11.4294
   386.80         11.3646
   386.94         11.2765
   387.08         11.1648
   387.22         11.0288
   387.36         10.8672
   387.50         10.6780
   387.64         10.4589
   387.78         10.2090
   387.92         9.9315
   388.06         9.6348
   388.20         9.3323
   388.34         9.0410
   388.48         8.7797
   388.62         8.5667
   388.76         8.4189
   388.90         8.3499
   389.04         8.3666
   389.18         8.4669
   389.32         8.6403
   389.46         8.8705
   389.60         9.1375
   389.74         9.4203
   389.88         9.6988
   390.02         9.9562
   390.16         10.1817
   390.30         10.3710
   390.44         10.5267
   390.58         10.6544
   390.72         10.7592
   390.86         10.8449
   391.00         10.9138
   391.14         10.9663
   391.28         11.0011
   391.42         11.0152
   391.56         11.0020
   391.70         10.9510
   391.84         10.8487
   391.98         10.6815
   392.12         10.4391
   392.26         10.1171
   392.40         9.7201
   392.54         9.2636
   392.68         8.7741
   392.82         8.2869
   392.96         7.8418
   393.10         7.4771
   393.24         7.2240
   393.38         7.1034
   393.52         7.1238
   393.66         7.2814
   393.80         7.5596
   393.94         7.9314
   394.08         8.3620
   394.22         8.8129
   394.36         9.2468
   394.50         9.6318
   394.64         9.9465
   394.78         10.1813
   394.92         10.3365
   395.06         10.4180
   395.20         10.4317
   395.34         10.3788
   395.48         10.2556
   395.62         10.0555
   395.76         9.7744
   395.90         9.4165
   396.04         8.9972
   396.18         8.5429
   396.32         8.0871
   396.46         7.6671
   396.60         7.3193
   396.74         7.0748
   396.88         6.9569
   397.02         6.9773
   397.16         7.1354
   397.30         7.4182
   397.44         7.8019
   397.58         8.2543
   397.72         8.7397
   397.86         9.2241
   398.00         9.6798
   398.14         10.0882
   398.28         10.4403
   398.42         10.7357
   398.56         10.9798
   398.70         11.1809
   398.84         11.3480
   398.98         11.4888
   399.12         11.6090
   399.26         11.7106
   399.40         11.7940
   399.54         11.8593
   399.68         11.9077
   399.82         11.9421
   399.96         11.9680
   400.10         11.9930
   400.24         12.0238
   400.38         12.0651
   400.52         12.1190
   400.66         12.1834
   400.80         12.2534
   400.94         12.3228
   401.08         12.3863
   401.22         12.4401
   401.36         12.4825
   401.50         12.5125
   401.64         12.5293
   401.78         12.5314
   401.92         12.5166
   402.06         12.4846
   402.20         12.4378
   402.34         12.3813
   402.48         12.3215
   402.62         12.2653
   402.76         12.2179
   402.90         12.1826
   403.04         12.1603
   403.18         12.1508
   403.32         12.1514
   403.46         12.1585
   403.60         12.1691
   403.74         12.1812
   403.88         12.1940
   404.02         12.2064
   404.16         12.2162
   404.30         12.2203
   404.44         12.2155
   404.58         12.2004
   404.72         12.1765
   404.86         12.1481
   405.00         12.1197
   405.14         12.0933
   405.28         12.0686
   405.42         12.0445
   405.56         12.0201
   405.70         11.9957
   405.84         11.9718
   405.98         11.9488
   406.12         11.9272
   406.26         11.9083
   406.40         11.8918
   406.54         11.8743
   406.68         11.8509
   406.82         11.8182
   406.96         11.7759
   407.10         11.7257
   407.24         11.6708
   407.38         11.6143
   407.52         11.5596
   407.66         11.5100
   407.80         11.4684
   407.94         11.4369
   408.08         11.4166
   408.22         11.4057
   408.36         11.3983
   408.50         11.3844
   408.64         11.3518
   408.78         11.2875
   408.92         11.1781
   409.06         11.0135
   409.20         10.7909
   409.34         10.5185
   409.48         10.2142
   409.62         9.9011
   409.76         9.6034
   409.90         9.3446
   410.04         9.1468
   410.18         9.0290
   410.32         9.0050
   410.46         9.0791
   410.60         9.2454
   410.74         9.4889
   410.88         9.7869
   411.02         10.1137
   411.16         10.4441
   411.30         10.7557
   411.44         11.0312
   411.58         11.2610
   411.72         11.4439
   411.86         11.5849
   412.00         11.6905
   412.14         11.7669
   412.28         11.8201
   412.42         11.8574
   412.56         11.8873
   412.70         11.9188
   412.84         11.9587
   412.98         12.0098
   413.12         12.0702
   413.26         12.1359
   413.40         12.2026
   413.54         12.2668
   413.68         12.3263
   413.82         12.3786
   413.96         12.4203
   414.10         12.4487
   414.24         12.4620
   414.38         12.4585
   414.52         12.4376
   414.66         12.4013
   414.80         12.3550
   414.94         12.3066
   415.08         12.2632
   415.22         12.2294
   415.36         12.2081
   415.50         12.2004
   415.64         12.2057
   415.78         12.2228
   415.92         12.2496
   416.06         12.2816
   416.20         12.3122
   416.34         12.3338
   416.48         12.3405
   416.62         12.3284
   416.76         12.2969
   416.90         12.2478
   417.04         12.1861
   417.18         12.1182
   417.32         12.0514
   417.46         11.9918
   417.60         11.9441
   417.74         11.9107
   417.88         11.8922
   418.02         11.8898
   418.16         11.9036
   418.30         11.9316
   418.44         11.9691
   418.58         12.0091
   418.72         12.0441
   418.86         12.0685
   419.00         12.0802
   419.14         12.0796
   419.28         12.0682
   419.42         12.0484
   419.56         12.0238
   419.70         11.9986
   419.84         11.9772
   419.98         11.9638
   420.12         11.9626
   420.26         11.9772
   420.40         12.0089
   420.54         12.0568
   420.68         12.1172
   420.82         12.1830
   420.96         12.2458
   421.10         12.2973
   421.24         12.3302
   421.38         12.3389
   421.52         12.3205
   421.66         12.2765
   421.80         12.2126
   421.94         12.1368
   422.08         12.0578
   422.22         11.9837
   422.36         11.9203
   422.50         11.8707
   422.64         11.8358
   422.78         11.8156
   422.92         11.8082
   423.06         11.8109
   423.20         11.8203
   423.34         11.8329
   423.48         11.8456
   423.62         11.8556
   423.76         11.8603
   423.90         11.8575
   424.04         11.8477
   424.18         11.8352
   424.32         11.8262
   424.46         11.8254
   424.60         11.8341
   424.74         11.8499
   424.88         11.8681
   425.02         11.8849
   425.16         11.8991
   425.30         11.9119
   425.44         11.9255
   425.58         11.9421
   425.72         11.9621
   425.86         11.9836
   426.00         12.0032
   426.14         12.0169
   426.28         12.0222
   426.42         12.0185
   426.56         12.0073
   426.70         11.9923
   426.84         11.9773
   426.98         11.9644
   427.12         11.9541
   427.26         11.9463
   427.40         11.9404
   427.54         11.9365
   427.68         11.9342
   427.82         11.9312
   427.96         11.9234
   428.10         11.9073
   428.24         11.8800
   428.38         11.8399
   428.52         11.7875
   428.66         11.7240
   428.80         11.6510
   428.94         11.5703
   429.08         11.4839
   429.22         11.3937
   429.36         11.3017
   429.50         11.2094
   429.64         11.1183
   429.78         11.0304
   429.92         10.9488
   430.06         10.8772
   430.20         10.8189
   430.34         10.7773
   430.48         10.7561
   430.62         10.7592
   430.76         10.7883
   430.90         10.8419
   431.04         10.9147
   431.18         10.9975
   431.32         11.0786
   431.46         11.1470
   431.60         11.1959
   431.74         11.2227
   431.88         11.2272
   432.02         11.2101
   432.16         11.1721
   432.30         11.1129
   432.44         11.0322
   432.58         10.9280
   432.72         10.7956
   432.86         10.6296
   433.00         10.4272
   433.14         10.1910
   433.28         9.9292
   433.42         9.6556
   433.56         9.3879
   433.70         9.1451
   433.84         8.9456
   433.98         8.8053
   434.12         8.7370
   434.26         8.7492
   434.40         8.8443
   434.54         9.0169
   434.68         9.2547
   434.82         9.5398
   434.96         9.8518
   435.10         10.1709
   435.24         10.4798
   435.38         10.7653
   435.52         11.0201
   435.66         11.2421
   435.80         11.4327
   435.94         11.5945
   436.08         11.7297
   436.22         11.8389
   436.36         11.9221
   436.50         11.9796
   436.64         12.0135
   436.78         12.0294
   436.92         12.0339
   437.06         12.0323
   437.20         12.0262
   437.34         12.0153
   437.48         11.9994
   437.62         11.9802
   437.76         11.9601
   437.90         11.9411
   438.04         11.9244
   438.18         11.9110
   438.32         11.9014
   438.46         11.8969
   438.60         11.8988
   438.74         11.9072
   438.88         11.9207
   439.02         11.9379
   439.16         11.9573
   439.30         11.9771
   439.44         11.9947
   439.58         12.0069
   439.72         12.0116
   439.86         12.0086
   440.00         12.0002
   440.14         11.9899
   440.28         11.9806
   440.42         11.9732
   440.56         11.9676
   440.70         11.9640
   440.84         11.9629
   440.98         11.9659
   441.12         11.9748
   441.26         11.9905
   441.40         12.0124
   441.54         12.0393
   441.68         12.0702
   441.82         12.1033
   441.96         12.1363
   442.10         12.1665
   442.24         12.1910
   442.38         12.2072
   442.52         12.2130
   442.66         12.2076
   442.80         12.1921
   442.94         12.1681
   443.08         12.1380
   443.22         12.1043
   443.36         12.0701
   443.50         12.0385
   443.64         12.0121
   443.78         11.9921
   443.92         11.9788
   444.06         11.9722
   444.20         11.9713
   444.34         11.9742
   444.48         11.9784
   444.62         11.9809
   444.76         11.9789
   444.90         11.9711
   445.04         11.9574
   445.18         11.9380
   445.32         11.9132
   445.46         11.8834
   445.60         11.8493
   445.74         11.8124
   445.88         11.7759
   446.02         11.7448
   446.16         11.7243
   446.30         11.7179
   446.44         11.7271
   446.58         11.7520
   446.72         11.7902
   446.86         11.8367
   447.00         11.8854
   447.14         11.9302
   447.28         11.9670
   447.42         11.9933
   447.56         12.0087
   447.70         12.0123
   447.84         12.0040
   447.98         11.9849
   448.12         11.9585
   448.26         11.9286
   448.40         11.8995
   448.54         11.8759
   448.68         11.8615
   448.82         11.8583
   448.96         11.8667
   449.10         11.8863
   449.24         11.9168
   449.38         11.9578
   449.52         12.0078
   449.66         12.0641
   449.80         12.1245
   449.94         12.1872
   450.08         12.2493
   450.22         12.3065
   450.36         12.3535
   450.50         12.3864
   450.64         12.4035
   450.78         12.4046
   450.92         12.3903
   451.06         12.3616
   451.20         12.3212
   451.34         12.2724
   451.48         12.2183
   451.62         12.1614
   451.76         12.1028
   451.90         12.0424
   452.04         11.9792
   452.18         11.9111
   452.32         11.8379
   452.46         11.7627
   452.60         11.6899
   452.74         11.6240
   452.88         11.5689
   453.02         11.5282
   453.16         11.5051
   453.30         11.5010
   453.44         11.5144
   453.58         11.5411
   453.72         11.5757
   453.86         11.6118
   454.00         11.6433
   454.14         11.6641
   454.28         11.6698
   454.42         11.6588
   454.56         11.6334
   454.70         11.5985
   454.84         11.5609
   454.98         11.5286
   455.12         11.5095
   455.26         11.5084
   455.40         11.5269
   455.54         11.5641
   455.68         11.6174
   455.82         11.6825
   455.96         11.7546
   456.10         11.8290
   456.24         11.9015
   456.38         11.9686
   456.52         12.0279
   456.66         12.0773
   456.80         12.1149
   456.94         12.1384
   457.08         12.1462
   457.22         12.1373
   457.36         12.1117
   457.50         12.0709
   457.64         12.0173
   457.78         11.9545
   457.92         11.8869
   458.06         11.8192
   458.20         11.7569
   458.34         11.7048
   458.48         11.6670
   458.62         11.6461
