# File O1015
# Wavelength [nm]    Normalized Amplitude
   349.70         12.2525
   349.84         12.1951
   349.98         12.1257
   350.12         12.0447
   350.26         11.9529
   350.40         11.8537
   350.54         11.7533
   350.68         11.6611
   350.82         11.5869
   350.96         11.5390
   351.10         11.5224
   351.24         11.5390
   351.38         11.5869
   351.52         11.6611
   351.66         11.7533
   351.80         11.8537
   351.94         11.9529
   352.08         12.0447
   352.22         12.1257
   352.36         12.1951
   352.50         12.2525
   352.64         12.2972
   352.78         12.3286
   352.92         12.3486
   353.06         12.3594
   353.20         12.3635
   353.34         12.3619
   353.48         12.3530
   353.62         12.3354
   353.76         12.3097
   353.90         12.2789
   354.04         12.2482
   354.18         12.2209
   354.32         12.1962
   354.46         12.1742
   354.60         12.1578
   354.74         12.1501
   354.88         12.1523
   355.02         12.1627
   355.16         12.1764
   355.30         12.1888
   355.44         12.1980
   355.58         12.2025
   355.72         12.2003
   355.86         12.1896
   356.00         12.1669
   356.14         12.1290
   356.28         12.0744
   356.42         12.0031
   356.56         11.9176
   356.70         11.8217
   356.84         11.7195
   356.98         11.6175
   357.12         11.5252
   357.26         11.4496
   357.40         11.3926
   357.54         11.3523
   357.68         11.3245
   357.82         11.3054
   357.96         11.2933
   358.10         11.2858
   358.24         11.2799
   358.38         11.2723
   358.52         11.2601
   358.66         11.2408
   358.80         11.2130
   358.94         11.1765
   359.08         11.1324
   359.22         11.0821
   359.36         11.0268
   359.50         10.9683
   359.64         10.9106
   359.78         10.8584
   359.92         10.8175
   360.06         10.7940
   360.20         10.7918
   360.34         10.8124
   360.48         10.8552
   360.62         10.9195
   360.76         11.0037
   360.90         11.1041
   361.04         11.2151
   361.18         11.3296
   361.32         11.4382
   361.46         11.5294
   361.60         11.5939
   361.74         11.6288
   361.88         11.6384
   362.02         11.6316
   362.16         11.6173
   362.30         11.6011
   362.44         11.5867
   362.58         11.5756
   362.72         11.5658
   362.86         11.5527
   363.00         11.5333
   363.14         11.5080
   363.28         11.4787
   363.42         11.4461
   363.56         11.4086
   363.70         11.3643
   363.84         11.3119
   363.98         11.2544
   364.12         11.2004
   364.26         11.1599
   364.40         11.1417
   364.54         11.1524
   364.68         11.1940
   364.82         11.2629
   364.96         11.3507
   365.10         11.4479
   365.24         11.5472
   365.38         11.6424
   365.52         11.7260
   365.66         11.7905
   365.80         11.8296
   365.94         11.8384
   366.08         11.8145
   366.22         11.7591
   366.36         11.6782
   366.50         11.5831
   366.64         11.4886
   366.78         11.4079
   366.92         11.3500
   367.06         11.3212
   367.20         11.3243
   367.34         11.3555
   367.48         11.4050
   367.62         11.4613
   367.76         11.5162
   367.90         11.5643
   368.04         11.6002
   368.18         11.6194
   368.32         11.6215
   368.46         11.6075
   368.60         11.5788
   368.74         11.5396
   368.88         11.4967
   369.02         11.4572
   369.16         11.4263
   369.30         11.4069
   369.44         11.3969
   369.58         11.3920
   369.72         11.3875
   369.86         11.3783
   370.00         11.3602
   370.14         11.3329
   370.28         11.2997
   370.42         11.2667
   370.56         11.2404
   370.70         11.2259
   370.84         11.2244
   370.98         11.2326
   371.12         11.2450
   371.26         11.2588
   371.40         11.2748
   371.54         11.2953
   371.68         11.3227
   371.82         11.3593
   371.96         11.4048
   372.10         11.4561
   372.24         11.5077
   372.38         11.5514
   372.52         11.5801
   372.66         11.5928
   372.80         11.5969
   372.94         11.6058
   373.08         11.6344
   373.22         11.6933
   373.36         11.7834
   373.50         11.8954
   373.64         12.0151
   373.78         12.1277
   373.92         12.2192
   374.06         12.2773
   374.20         12.2955
   374.34         12.2739
   374.48         12.2185
   374.62         12.1430
   374.76         12.0697
   374.90         12.0261
   375.04         12.0397
   375.18         12.1345
   375.32         12.3237
   375.46         12.6008
   375.60         12.9366
   375.74         13.2826
   375.88         13.5805
   376.02         13.7774
   376.16         13.8408
   376.30         13.7653
   376.44         13.5731
   376.58         13.3078
   376.72         13.0280
   376.86         12.7994
   377.00         12.6837
   377.14         12.7280
   377.28         12.9586
   377.42         13.3785
   377.56         13.9665
   377.70         14.6814
   377.84         15.4667
   377.98         16.2532
   378.12         16.9653
   378.26         17.5304
   378.40         17.8897
   378.54         18.0063
   378.68         17.8706
   378.82         17.5014
   378.96         16.9404
   379.10         16.2465
   379.24         15.4915
   379.38         14.7544
   379.52         14.1136
   379.66         13.6388
   379.80         13.3836
   379.94         13.3801
   380.08         13.6350
   380.22         14.1310
   380.36         14.8285
   380.50         15.6678
   380.64         16.5758
   380.78         17.4771
   380.92         18.3050
   381.06         19.0091
   381.20         19.5582
   381.34         19.9374
   381.48         20.1454
   381.62         20.1900
   381.76         20.0843
   381.90         19.8433
   382.04         19.4805
   382.18         19.0055
   382.32         18.4254
   382.46         17.7511
   382.60         17.0028
   382.74         16.2144
   382.88         15.4318
   383.02         14.7046
   383.16         14.0804
   383.30         13.6046
   383.44         13.3173
   383.58         13.2436
   383.72         13.3881
   383.86         13.7356
   384.00         14.2558
   384.14         14.9072
   384.28         15.6409
   384.42         16.4052
   384.56         17.1525
   384.70         17.8457
   384.84         18.4603
   384.98         18.9868
   385.12         19.4292
   385.26         19.7987
   385.40         20.1073
   385.54         20.3651
   385.68         20.5794
   385.82         20.7549
   385.96         20.8932
   386.10         20.9937
   386.24         21.0533
   386.38         21.0676
   386.52         21.0337
   386.66         20.9493
   386.80         20.8103
   386.94         20.6102
   387.08         20.3406
   387.22         19.9925
   387.36         19.5562
   387.50         19.0212
   387.64         18.3804
   387.78         17.6358
   387.92         16.8037
   388.06         15.9180
   388.20         15.0273
   388.34         14.1891
   388.48         13.4636
   388.62         12.9081
   388.76         12.5705
   388.90         12.4796
   389.04         12.6406
   389.18         13.0377
   389.32         13.6370
   389.46         14.3891
   389.60         15.2345
   389.74         16.1112
   389.88         16.9613
   390.02         17.7356
   390.16         18.3992
   390.30         18.9361
   390.44         19.3507
   390.58         19.6613
   390.72         19.8922
   390.86         20.0673
   391.00         20.2062
   391.14         20.3232
   391.28         20.4264
   391.42         20.5182
   391.56         20.5963
   391.70         20.6561
   391.84         20.6925
   391.98         20.7022
   392.12         20.6843
   392.26         20.6418
   392.40         20.5805
   392.54         20.5070
   392.68         20.4288
   392.82         20.3545
   392.96         20.2912
   393.10         20.2436
   393.24         20.2140
   393.38         20.2024
   393.52         20.2081
   393.66         20.2274
   393.80         20.2533
   393.94         20.2763
   394.08         20.2862
   394.22         20.2735
   394.36         20.2300
   394.50         20.1491
   394.64         20.0255
   394.78         19.8549
   394.92         19.6329
   395.06         19.3541
   395.20         19.0125
   395.34         18.6011
   395.48         18.1129
   395.62         17.5413
   395.76         16.8846
   395.90         16.1492
   396.04         15.3516
   396.18         14.5202
   396.32         13.6926
   396.46         12.9138
   396.60         12.2312
   396.74         11.6906
   396.88         11.3312
   397.02         11.1806
   397.16         11.2501
   397.30         11.5341
   397.44         12.0102
   397.58         12.6402
   397.72         13.3741
   397.86         14.1569
   398.00         14.9372
   398.14         15.6732
   398.28         16.3360
   398.42         16.9113
   398.56         17.3970
   398.70         17.7996
   398.84         18.1297
   398.98         18.3991
   399.12         18.6200
   399.26         18.8021
   399.40         18.9527
   399.54         19.0761
   399.68         19.1745
   399.82         19.2479
   399.96         19.2957
   400.10         19.3194
   400.24         19.3226
   400.38         19.3098
   400.52         19.2875
   400.66         19.2629
   400.80         19.2403
   400.94         19.2215
   401.08         19.2065
   401.22         19.1932
   401.36         19.1764
   401.50         19.1507
   401.64         19.1126
   401.78         19.0619
   401.92         19.0007
   402.06         18.9332
   402.20         18.8658
   402.34         18.8050
   402.48         18.7550
   402.62         18.7173
   402.76         18.6918
   402.90         18.6763
   403.04         18.6665
   403.18         18.6601
   403.32         18.6571
   403.46         18.6575
   403.60         18.6626
   403.74         18.6743
   403.88         18.6929
   404.02         18.7177
   404.16         18.7487
   404.30         18.7867
   404.44         18.8302
   404.58         18.8746
   404.72         18.9141
   404.86         18.9451
   405.00         18.9650
   405.14         18.9718
   405.28         18.9652
   405.42         18.9482
   405.56         18.9245
   405.70         18.8969
   405.84         18.8685
   405.98         18.8400
   406.12         18.8086
   406.26         18.7704
   406.40         18.7215
   406.54         18.6578
   406.68         18.5775
   406.82         18.4814
   406.96         18.3720
   407.10         18.2527
   407.24         18.1272
   407.38         17.9999
   407.52         17.8733
   407.66         17.7458
   407.80         17.6127
   407.94         17.4682
   408.08         17.3049
   408.22         17.1135
   408.36         16.8845
   408.50         16.6095
   408.64         16.2797
   408.78         15.8866
   408.92         15.4242
   409.06         14.8907
   409.20         14.2930
   409.34         13.6496
   409.48         12.9900
   409.62         12.3513
   409.76         11.7732
   409.90         11.2939
   410.04         10.9466
   410.18         10.7547
   410.32         10.7314
   410.46         10.8784
   410.60         11.1844
   410.74         11.6252
   410.88         12.1674
   411.02         12.7725
   411.16         13.4008
   411.30         14.0161
   411.44         14.5905
   411.58         15.1065
   411.72         15.5553
   411.86         15.9350
   412.00         16.2476
   412.14         16.4960
   412.28         16.6842
   412.42         16.8182
   412.56         16.9068
   412.70         16.9604
   412.84         16.9893
   412.98         17.0035
   413.12         17.0099
   413.26         17.0117
   413.40         17.0111
   413.54         17.0111
   413.68         17.0149
   413.82         17.0247
   413.96         17.0407
   414.10         17.0627
   414.24         17.0897
   414.38         17.1212
   414.52         17.1575
   414.66         17.1991
   414.80         17.2467
   414.94         17.3004
   415.08         17.3578
   415.22         17.4135
   415.36         17.4604
   415.50         17.4919
   415.64         17.5020
   415.78         17.4867
   415.92         17.4458
   416.06         17.3830
   416.20         17.3037
   416.34         17.2142
   416.48         17.1202
   416.62         17.0277
   416.76         16.9432
   416.90         16.8728
   417.04         16.8203
   417.18         16.7864
   417.32         16.7705
   417.46         16.7714
   417.60         16.7873
   417.74         16.8149
   417.88         16.8496
   418.02         16.8871
   418.16         16.9225
   418.30         16.9515
   418.44         16.9705
   418.58         16.9760
   418.72         16.9654
   418.86         16.9383
   419.00         16.8976
   419.14         16.8474
   419.28         16.7928
   419.42         16.7384
   419.56         16.6878
   419.70         16.6440
   419.84         16.6100
   419.98         16.5890
   420.12         16.5823
   420.26         16.5875
   420.40         16.5995
   420.54         16.6116
   420.68         16.6184
   420.82         16.6172
   420.96         16.6080
   421.10         16.5921
   421.24         16.5711
   421.38         16.5465
   421.52         16.5203
   421.66         16.4941
   421.80         16.4685
   421.94         16.4444
   422.08         16.4223
   422.22         16.4024
   422.36         16.3844
   422.50         16.3674
   422.64         16.3494
   422.78         16.3286
   422.92         16.3041
   423.06         16.2764
   423.20         16.2475
   423.34         16.2215
   423.48         16.2028
   423.62         16.1936
   423.76         16.1928
   423.90         16.1985
   424.04         16.2097
   424.18         16.2253
   424.32         16.2436
   424.46         16.2612
   424.60         16.2749
   424.74         16.2822
   424.88         16.2820
   425.02         16.2747
   425.16         16.2601
   425.30         16.2370
   425.44         16.2047
   425.58         16.1628
   425.72         16.1126
   425.86         16.0575
   426.00         16.0020
   426.14         15.9490
   426.28         15.8991
   426.42         15.8533
   426.56         15.8134
   426.70         15.7811
   426.84         15.7563
   426.98         15.7385
   427.12         15.7289
   427.26         15.7306
   427.40         15.7453
   427.54         15.7717
   427.68         15.8051
   427.82         15.8401
   427.96         15.8731
   428.10         15.9018
   428.24         15.9247
   428.38         15.9409
   428.52         15.9490
   428.66         15.9462
   428.80         15.9299
   428.94         15.8997
   429.08         15.8568
   429.22         15.8034
   429.36         15.7429
   429.50         15.6797
   429.64         15.6187
   429.78         15.5636
   429.92         15.5151
   430.06         15.4712
   430.20         15.4288
   430.34         15.3855
   430.48         15.3398
   430.62         15.2903
   430.76         15.2353
   430.90         15.1733
   431.04         15.1043
   431.18         15.0282
   431.32         14.9441
   431.46         14.8513
   431.60         14.7489
   431.74         14.6348
   431.88         14.5056
   432.02         14.3569
   432.16         14.1825
   432.30         13.9736
   432.44         13.7210
   432.58         13.4161
   432.72         13.0520
   432.86         12.6256
   433.00         12.1396
   433.14         11.6058
   433.28         11.0453
   433.42         10.4868
   433.56         9.9636
   433.70         9.5091
   433.84         9.1531
   433.98         8.9191
   434.12         8.8231
   434.26         8.8712
   434.40         9.0588
   434.54         9.3711
   434.68         9.7843
   434.82         10.2673
   434.96         10.7856
   435.10         11.3061
   435.24         11.8013
   435.38         12.2515
   435.52         12.6474
   435.66         12.9881
   435.80         13.2780
   435.94         13.5238
   436.08         13.7331
   436.22         13.9130
   436.36         14.0699
   436.50         14.2082
   436.64         14.3309
   436.78         14.4393
   436.92         14.5338
   437.06         14.6136
   437.20         14.6766
   437.34         14.7192
   437.48         14.7386
   437.62         14.7343
   437.76         14.7093
   437.90         14.6679
   438.04         14.6148
   438.18         14.5544
   438.32         14.4908
   438.46         14.4288
   438.60         14.3742
   438.74         14.3322
   438.88         14.3062
   439.02         14.2982
   439.16         14.3079
   439.30         14.3330
   439.44         14.3690
   439.58         14.4104
   439.72         14.4511
   439.86         14.4847
   440.00         14.5055
   440.14         14.5094
   440.28         14.4956
   440.42         14.4649
   440.56         14.4188
   440.70         14.3598
   440.84         14.2909
   440.98         14.2154
   441.12         14.1365
   441.26         14.0580
   441.40         13.9841
   441.54         13.9189
   441.68         13.8659
   441.82         13.8268
   441.96         13.8007
   442.10         13.7850
   442.24         13.7761
   442.38         13.7696
   442.52         13.7618
   442.66         13.7517
   442.80         13.7401
   442.94         13.7282
   443.08         13.7176
   443.22         13.7100
   443.36         13.7076
   443.50         13.7128
   443.64         13.7282
   443.78         13.7559
   443.92         13.7964
   444.06         13.8472
   444.20         13.9043
   444.34         13.9623
   444.48         14.0153
   444.62         14.0577
   444.76         14.0864
   444.90         14.1002
   445.04         14.0999
   445.18         14.0884
   445.32         14.0692
   445.46         14.0450
   445.60         14.0168
   445.74         13.9843
   445.88         13.9459
   446.02         13.8993
   446.16         13.8427
   446.30         13.7763
   446.44         13.7011
   446.58         13.6192
   446.72         13.5330
   446.86         13.4463
   447.00         13.3637
   447.14         13.2917
   447.28         13.2374
   447.42         13.2060
   447.56         13.1992
   447.70         13.2155
   447.84         13.2508
   447.98         13.2988
   448.12         13.3521
   448.26         13.4039
   448.40         13.4488
   448.54         13.4840
   448.68         13.5088
   448.82         13.5246
   448.96         13.5330
   449.10         13.5356
   449.24         13.5348
   449.38         13.5329
   449.52         13.5332
   449.66         13.5378
   449.80         13.5457
   449.94         13.5536
   450.08         13.5561
   450.22         13.5473
   450.36         13.5229
   450.50         13.4823
   450.64         13.4287
   450.78         13.3668
   450.92         13.3020
   451.06         13.2400
   451.20         13.1857
   451.34         13.1425
   451.48         13.1128
   451.62         13.0969
   451.76         13.0933
   451.90         13.0984
   452.04         13.1073
   452.18         13.1149
   452.32         13.1182
   452.46         13.1163
   452.60         13.1099
   452.74         13.0990
   452.88         13.0828
   453.02         13.0632
   453.16         13.0438
   453.30         13.0275
   453.44         13.0154
   453.58         13.0080
   453.72         13.0051
   453.86         13.0053
   454.00         13.0064
   454.14         13.0067
   454.28         13.0046
   454.42         12.9995
   454.56         12.9914
   454.70         12.9814
   454.84         12.9703
   454.98         12.9593
   455.12         12.9487
   455.26         12.9378
   455.40         12.9258
   455.54         12.9131
   455.68         12.9021
   455.82         12.8948
   455.96         12.8915
   456.10         12.8925
   456.24         12.8994
   456.38         12.9134
   456.52         12.9342
   456.66         12.9618
   456.80         12.9958
   456.94         13.0345
