# File O2311
# Wavelength [nm]    Normalized Amplitude
   349.70         131.3858
   349.84         131.8373
   349.98         132.1907
   350.12         132.4459
   350.26         132.6034
   350.40         132.6766
   350.54         132.6943
   350.68         132.6872
   350.82         132.6771
   350.96         132.6734
   351.10         132.6734
   351.24         132.6734
   351.38         132.6771
   351.52         132.6872
   351.66         132.6943
   351.80         132.6766
   351.94         132.6034
   352.08         132.4459
   352.22         132.1907
   352.36         131.8373
   352.50         131.3858
   352.64         130.8393
   352.78         130.2108
   352.92         129.5231
   353.06         128.8074
   353.20         128.1071
   353.34         127.4771
   353.48         126.9756
   353.62         126.6581
   353.76         126.5559
   353.90         126.6604
   354.04         126.9305
   354.18         127.3014
   354.32         127.7005
   354.46         128.0588
   354.60         128.3131
   354.74         128.4201
   354.88         128.3616
   355.02         128.1378
   355.16         127.7600
   355.30         127.2560
   355.44         126.6726
   355.58         126.0669
   355.72         125.4999
   355.86         125.0274
   356.00         124.6856
   356.14         124.4849
   356.28         124.4002
   356.42         124.3645
   356.56         124.2955
   356.70         124.1276
   356.84         123.8176
   356.98         123.3381
   357.12         122.6709
   357.26         121.8194
   357.40         120.8201
   357.54         119.7273
   357.68         118.5939
   357.82         117.4723
   357.96         116.4303
   358.10         115.5435
   358.24         114.8714
   358.38         114.4409
   358.52         114.2372
   358.66         114.2083
   358.80         114.2771
   358.94         114.3649
   359.08         114.4186
   359.22         114.4155
   359.36         114.3531
   359.50         114.2453
   359.64         114.1180
   359.78         114.0021
   359.92         113.9251
   360.06         113.8979
   360.20         113.9153
   360.34         113.9731
   360.48         114.0730
   360.62         114.2068
   360.76         114.3421
   360.90         114.4335
   361.04         114.4415
   361.18         114.3476
   361.32         114.1646
   361.46         113.9356
   361.60         113.7208
   361.74         113.5783
   361.88         113.5471
   362.02         113.6383
   362.16         113.8322
   362.30         114.0807
   362.44         114.3213
   362.58         114.4949
   362.72         114.5592
   362.86         114.4971
   363.00         114.3153
   363.14         114.0317
   363.28         113.6669
   363.42         113.2461
   363.56         112.7996
   363.70         112.3675
   363.84         112.0034
   363.98         111.7475
   364.12         111.6129
   364.26         111.6008
   364.40         111.7045
   364.54         111.9049
   364.68         112.1679
   364.82         112.4566
   364.96         112.7470
   365.10         113.0256
   365.24         113.2784
   365.38         113.4966
   365.52         113.6840
   365.66         113.8498
   365.80         113.9992
   365.94         114.1320
   366.08         114.2380
   366.22         114.2996
   366.36         114.3052
   366.50         114.2521
   366.64         114.1405
   366.78         113.9797
   366.92         113.7834
   367.06         113.5577
   367.20         113.3018
   367.34         113.0243
   367.48         112.7598
   367.62         112.5511
   367.76         112.4247
   367.90         112.3926
   368.04         112.4562
   368.18         112.5997
   368.32         112.7836
   368.46         112.9559
   368.60         113.0715
   368.74         113.0985
   368.88         113.0174
   369.02         112.8225
   369.16         112.5192
   369.30         112.1140
   369.44         111.6173
   369.58         111.0551
   369.72         110.4617
   369.86         109.8726
   370.00         109.3220
   370.14         108.8310
   370.28         108.4071
   370.42         108.0671
   370.56         107.8439
   370.70         107.7610
   370.84         107.8109
   370.98         107.9520
   371.12         108.1279
   371.26         108.2913
   371.40         108.4102
   371.54         108.4699
   371.68         108.4744
   371.82         108.4375
   371.96         108.3676
   372.10         108.2570
   372.24         108.0799
   372.38         107.8119
   372.52         107.4655
   372.66         107.0964
   372.80         106.7880
   372.94         106.6253
   373.08         106.6628
   373.22         106.9024
   373.36         107.2989
   373.50         107.7747
   373.64         108.2365
   373.78         108.5945
   373.92         108.7735
   374.06         108.7172
   374.20         108.4014
   374.34         107.8483
   374.48         107.1264
   374.62         106.3503
   374.76         105.6757
   374.90         105.2728
   375.04         105.2868
   375.18         105.8039
   375.32         106.8268
   375.46         108.2639
   375.60         109.9296
   375.74         111.5592
   375.88         112.8662
   376.02         113.6151
   376.16         113.6776
   376.30         113.0751
   376.44         111.9770
   376.58         110.6517
   376.72         109.4064
   376.86         108.5405
   377.00         108.2955
   377.14         108.8118
   377.28         110.1145
   377.42         112.1185
   377.56         114.6487
   377.70         117.4731
   377.84         120.3265
   377.98         122.9270
   378.12         124.9926
   378.26         126.2648
   378.40         126.5524
   378.54         125.7884
   378.68         124.0582
   378.82         121.5783
   378.96         118.6425
   379.10         115.5624
   379.24         112.6329
   379.38         110.1153
   379.52         108.2238
   379.66         107.1104
   379.80         106.8547
   379.94         107.4680
   380.08         108.9006
   380.22         111.0269
   380.36         113.6233
   380.50         116.3871
   380.64         118.9980
   380.78         121.1862
   380.92         122.7852
   381.06         123.7569
   381.20         124.1802
   381.34         124.2043
   381.48         123.9831
   381.62         123.6344
   381.76         123.2255
   381.90         122.7678
   382.04         122.2143
   382.18         121.4791
   382.32         120.4811
   382.46         119.1776
   382.60         117.5793
   382.74         115.7456
   382.88         113.7671
   383.02         111.7698
   383.16         109.9272
   383.30         108.4408
   383.44         107.5035
   383.58         107.2555
   383.72         107.7437
   383.86         108.9101
   384.00         110.6154
   384.14         112.6756
   384.28         114.8926
   384.42         117.0754
   384.56         119.0593
   384.70         120.7251
   384.84         122.0211
   384.98         122.9654
   385.12         123.6104
   385.26         124.0058
   385.40         124.1867
   385.54         124.1784
   385.68         124.0037
   385.82         123.6865
   385.96         123.2522
   386.10         122.7316
   386.24         122.1501
   386.38         121.5226
   386.52         120.8664
   386.66         120.2037
   386.80         119.5468
   386.94         118.8812
   387.08         118.1650
   387.22         117.3382
   387.36         116.3208
   387.50         115.0162
   387.64         113.3421
   387.78         111.2744
   387.92         108.8758
   388.06         106.2924
   388.20         103.7187
   388.34         101.3642
   388.48         99.4348
   388.62         98.1074
   388.76         97.5041
   388.90         97.6740
   389.04         98.6017
   389.18         100.2158
   389.32         102.3827
   389.46         104.9117
   389.60         107.5781
   389.74         110.1596
   389.88         112.4601
   390.02         114.3310
   390.16         115.7035
   390.30         116.6050
   390.44         117.1216
   390.58         117.3391
   390.72         117.3201
   390.86         117.1094
   391.00         116.7479
   391.14         116.2641
   391.28         115.6670
   391.42         114.9634
   391.56         114.1782
   391.70         113.3565
   391.84         112.5401
   391.98         111.7476
   392.12         110.9850
   392.26         110.2654
   392.40         109.6207
   392.54         109.0943
   392.68         108.7313
   392.82         108.5671
   392.96         108.6141
   393.10         108.8523
   393.24         109.2391
   393.38         109.7324
   393.52         110.2999
   393.66         110.9100
   393.80         111.5210
   393.94         112.0906
   394.08         112.5848
   394.22         112.9666
   394.36         113.1910
   394.50         113.2160
   394.64         113.0237
   394.78         112.6273
   394.92         112.0543
   395.06         111.3220
   395.20         110.4232
   395.34         109.3227
   395.48         107.9624
   395.62         106.2733
   395.76         104.2038
   395.90         101.7620
   396.04         99.0392
   396.18         96.1978
   396.32         93.4383
   396.46         90.9692
   396.60         88.9849
   396.74         87.6476
   396.88         87.0676
   397.02         87.2927
   397.16         88.3045
   397.30         90.0132
   397.44         92.2585
   397.58         94.8267
   397.72         97.4854
   397.86         100.0171
   398.00         102.2387
   398.14         104.0225
   398.28         105.3167
   398.42         106.1508
   398.56         106.6240
   398.70         106.8690
   398.84         107.0079
   398.98         107.1242
   399.12         107.2535
   399.26         107.3933
   399.40         107.5180
   399.54         107.5890
   399.68         107.5661
   399.82         107.4225
   399.96         107.1484
   400.10         106.7470
   400.24         106.2349
   400.38         105.6404
   400.52         105.0000
   400.66         104.3543
   400.80         103.7469
   400.94         103.2150
   401.08         102.7691
   401.22         102.3846
   401.36         102.0128
   401.50         101.6012
   401.64         101.1155
   401.78         100.5519
   401.92         99.9371
   402.06         99.3163
   402.20         98.7398
   402.34         98.2613
   402.48         97.9340
   402.62         97.7968
   402.76         97.8654
   402.90         98.1294
   403.04         98.5544
   403.18         99.0909
   403.32         99.6821
   403.46         100.2700
   403.60         100.8072
   403.74         101.2651
   403.88         101.6375
   404.02         101.9378
   404.16         102.1869
   404.30         102.4028
   404.44         102.5908
   404.58         102.7415
   404.72         102.8405
   404.86         102.8801
   405.00         102.8658
   405.14         102.8143
   405.28         102.7427
   405.42         102.6565
   405.56         102.5429
   405.70         102.3821
   405.84         102.1577
   405.98         101.8589
   406.12         101.4823
   406.26         101.0299
   406.40         100.5041
   406.54         99.9081
   406.68         99.2594
   406.82         98.5961
   406.96         97.9617
   407.10         97.3876
   407.24         96.8907
   407.38         96.4819
   407.52         96.1664
   407.66         95.9378
   407.80         95.7770
   407.94         95.6544
   408.08         95.5346
   408.22         95.3800
   408.36         95.1505
   408.50         94.7981
   408.64         94.2636
   408.78         93.4802
   408.92         92.3903
   409.06         90.9680
   409.20         89.2386
   409.34         87.2866
   409.48         85.2408
   409.62         83.2475
   409.76         81.4563
   409.90         80.0086
   410.04         79.0205
   410.18         78.5671
   410.32         78.6727
   410.46         79.3063
   410.60         80.3791
   410.74         81.7521
   410.88         83.2555
   411.02         84.7254
   411.16         86.0346
   411.30         87.1044
   411.44         87.9112
   411.58         88.4829
   411.72         88.8793
   411.86         89.1686
   412.00         89.4104
   412.14         89.6461
   412.28         89.9006
   412.42         90.1857
   412.56         90.4959
   412.70         90.8085
   412.84         91.0898
   412.98         91.2997
   413.12         91.3964
   413.26         91.3522
   413.40         91.1690
   413.54         90.8775
   413.68         90.5260
   413.82         90.1649
   413.96         89.8378
   414.10         89.5818
   414.24         89.4223
   414.38         89.3703
   414.52         89.4281
   414.66         89.5904
   414.80         89.8395
   414.94         90.1443
   415.08         90.4622
   415.22         90.7487
   415.36         90.9674
   415.50         91.0946
   415.64         91.1218
   415.78         91.0598
   415.92         90.9356
   416.06         90.7791
   416.20         90.6105
   416.34         90.4416
   416.48         90.2796
   416.62         90.1273
   416.76         89.9829
   416.90         89.8420
   417.04         89.6998
   417.18         89.5529
   417.32         89.3993
   417.46         89.2380
   417.60         89.0686
   417.74         88.8932
   417.88         88.7161
   418.02         88.5436
   418.16         88.3825
   418.30         88.2400
   418.44         88.1211
   418.58         88.0256
   418.72         87.9497
   418.86         87.8907
   419.00         87.8450
   419.14         87.8066
   419.28         87.7683
   419.42         87.7230
   419.56         87.6656
   419.70         87.5943
   419.84         87.5147
   419.98         87.4385
   420.12         87.3752
   420.26         87.3307
   420.40         87.3121
   420.54         87.3238
   420.68         87.3622
   420.82         87.4178
   420.96         87.4827
   421.10         87.5551
   421.24         87.6363
   421.38         87.7222
   421.52         87.7990
   421.66         87.8498
   421.80         87.8618
   421.94         87.8266
   422.08         87.7368
   422.22         87.5882
   422.36         87.3818
   422.50         87.1248
   422.64         86.8269
   422.78         86.4992
   422.92         86.1586
   423.06         85.8291
   423.20         85.5319
   423.34         85.2827
   423.48         85.0966
   423.62         84.9836
   423.76         84.9396
   423.90         84.9415
   424.04         84.9565
   424.18         84.9570
   424.32         84.9246
   424.46         84.8469
   424.60         84.7156
   424.74         84.5278
   424.88         84.2861
   425.02         83.9977
   425.16         83.6702
   425.30         83.3086
   425.44         82.9233
   425.58         82.5367
   425.72         82.1789
   425.86         81.8739
   426.00         81.6355
   426.14         81.4667
   426.28         81.3592
   426.42         81.3011
   426.56         81.2844
   426.70         81.3105
   426.84         81.3839
   426.98         81.5027
   427.12         81.6584
   427.26         81.8367
   427.40         82.0219
   427.54         82.2005
   427.68         82.3616
   427.82         82.4951
   427.96         82.5931
   428.10         82.6527
   428.24         82.6734
   428.38         82.6526
   428.52         82.5875
   428.66         82.4805
   428.80         82.3415
   428.94         82.1852
   429.08         82.0253
   429.22         81.8691
   429.36         81.7175
   429.50         81.5646
   429.64         81.3994
   429.78         81.2127
   429.92         81.0018
   430.06         80.7685
   430.20         80.5151
   430.34         80.2430
   430.48         79.9543
   430.62         79.6517
   430.76         79.3380
   430.90         79.0168
   431.04         78.6979
   431.18         78.3943
   431.32         78.1167
   431.46         77.8693
   431.60         77.6471
   431.74         77.4369
   431.88         77.2206
   432.02         76.9775
   432.16         76.6824
   432.30         76.3049
   432.44         75.8076
   432.58         75.1444
   432.72         74.2681
   432.86         73.1517
   433.00         71.8045
   433.14         70.2770
   433.28         68.6573
   433.42         67.0580
   433.56         65.5995
   433.70         64.3943
   433.84         63.5352
   433.98         63.0873
   434.12         63.0834
   434.26         63.5197
   434.40         64.3557
   434.54         65.5191
   434.68         66.9114
   434.82         68.4181
   434.96         69.9192
   435.10         71.3023
   435.24         72.4779
   435.38         73.3956
   435.52         74.0497
   435.66         74.4671
   435.80         74.6904
   435.94         74.7674
   436.08         74.7454
   436.22         74.6700
   436.36         74.5871
   436.50         74.5386
   436.64         74.5540
   436.78         74.6465
   436.92         74.8117
   437.06         75.0278
   437.20         75.2594
   437.34         75.4597
   437.48         75.5789
   437.62         75.5791
   437.76         75.4450
   437.90         75.1852
   438.04         74.8271
   438.18         74.4099
   438.32         73.9783
   438.46         73.5772
   438.60         73.2476
   438.74         73.0232
   438.88         72.9249
   439.02         72.9583
   439.16         73.1144
   439.30         73.3694
   439.44         73.6873
   439.58         74.0247
   439.72         74.3372
   439.86         74.5877
   440.00         74.7500
   440.14         74.8090
   440.28         74.7599
   440.42         74.6048
   440.56         74.3493
   440.70         74.0040
   440.84         73.5884
   440.98         73.1298
   441.12         72.6568
   441.26         72.1954
   441.40         71.7673
   441.54         71.3872
   441.68         71.0610
   441.82         70.7846
   441.96         70.5472
   442.10         70.3370
   442.24         70.1419
   442.38         69.9502
   442.52         69.7523
   442.66         69.5419
   442.80         69.3198
   442.94         69.0992
   443.08         68.9018
   443.22         68.7492
   443.36         68.6573
   443.50         68.6366
   443.64         68.6918
   443.78         68.8198
   443.92         69.0075
   444.06         69.2309
   444.20         69.4635
   444.34         69.6818
   444.48         69.8669
   444.62         70.0070
   444.76         70.0969
   444.90         70.1388
   445.04         70.1421
   445.18         70.1184
   445.32         70.0746
   445.46         70.0049
   445.60         69.8865
   445.74         69.6840
   445.88         69.3617
   446.02         68.9010
   446.16         68.3109
   446.30         67.6241
   446.44         66.8877
   446.58         66.1540
   446.72         65.4750
   446.86         64.9004
   447.00         64.4721
   447.14         64.2200
   447.28         64.1628
   447.42         64.3028
   447.56         64.6210
   447.70         65.0772
   447.84         65.6156
   447.98         66.1749
   448.12         66.6982
   448.26         67.1458
   448.40         67.5045
   448.54         67.7843
   448.68         68.0031
   448.82         68.1736
   448.96         68.3003
   449.10         68.3840
   449.24         68.4243
   449.38         68.4227
   449.52         68.3854
   449.66         68.3208
   449.80         68.2334
   449.94         68.1245
   450.08         67.9964
   450.22         67.8567
   450.36         67.7178
   450.50         67.5958
   450.64         67.5074
   450.78         67.4644
   450.92         67.4720
   451.06         67.5276
   451.20         67.6200
   451.34         67.7332
   451.48         67.8492
   451.62         67.9511
   451.76         68.0244
   451.90         68.0586
   452.04         68.0481
   452.18         67.9909
   452.32         67.8892
   452.46         67.7530
   452.60         67.6018
   452.74         67.4578
   452.88         67.3382
   453.02         67.2536
   453.16         67.2096
   453.30         67.2045
   453.44         67.2319
   453.58         67.2784
   453.72         67.3201
   453.86         67.3282
   454.00         67.2801
   454.14         67.1678
   454.28         67.0002
   454.42         66.7993
   454.56         66.5889
   454.70         66.3864
   454.84         66.2030
