# File SAO11344
# Wavelength [nm]    Normalized Amplitude
   349.70         104.8615
   349.84         105.0960
   349.98         105.3502
   350.12         105.5753
   350.26         105.7413
   350.40         105.8407
   350.54         105.8847
   350.68         105.8906
   350.82         105.8751
   350.96         105.8569
   351.10         105.8495
   351.24         105.8569
   351.38         105.8751
   351.52         105.8906
   351.66         105.8847
   351.80         105.8407
   351.94         105.7413
   352.08         105.5753
   352.22         105.3502
   352.36         105.0960
   352.50         104.8615
   352.64         104.6964
   352.78         104.6346
   352.92         104.6955
   353.06         104.8902
   353.20         105.2131
   353.34         105.6412
   353.48         106.1509
   353.62         106.7178
   353.76         107.3118
   353.90         107.9014
   354.04         108.4550
   354.18         108.9329
   354.32         109.2848
   354.46         109.4596
   354.60         109.4353
   354.74         109.2265
   354.88         108.8601
   355.02         108.3617
   355.16         107.7484
   355.30         107.0338
   355.44         106.2418
   355.58         105.4145
   355.72         104.6021
   355.86         103.8603
   356.00         103.2692
   356.14         102.9082
   356.28         102.8119
   356.42         102.9567
   356.56         103.2660
   356.70         103.6321
   356.84         103.9363
   356.98         104.0717
   357.12         103.9644
   357.26         103.5807
   357.40         102.9153
   357.54         101.9921
   357.68         100.8801
   357.82         99.6819
   357.96         98.5233
   358.10         97.5327
   358.24         96.8069
   358.38         96.4060
   358.52         96.3652
   358.66         96.6853
   358.80         97.3020
   358.94         98.0958
   359.08         98.9367
   359.22         99.7187
   359.36         100.3603
   359.50         100.8011
   359.64         101.0151
   359.78         101.0094
   359.92         100.8207
   360.06         100.5276
   360.20         100.2299
   360.34         100.0068
   360.48         99.8983
   360.62         99.9099
   360.76         100.0206
   360.90         100.1947
   361.04         100.4006
   361.18         100.6226
   361.32         100.8468
   361.46         101.0390
   361.60         101.1557
   361.74         101.1659
   361.88         101.0585
   362.02         100.8406
   362.16         100.5408
   362.30         100.2135
   362.44         99.9293
   362.58         99.7616
   362.72         99.7676
   362.86         99.9522
   363.00         100.2735
   363.14         100.6801
   363.28         101.1348
   363.42         101.6198
   363.56         102.1308
   363.70         102.6748
   363.84         103.2634
   363.98         103.8840
   364.12         104.4974
   364.26         105.0640
   364.40         105.5554
   364.54         105.9496
   364.68         106.2223
   364.82         106.3471
   364.96         106.2988
   365.10         106.0439
   365.24         105.5665
   365.38         104.8967
   365.52         104.0969
   365.66         103.2540
   365.80         102.4729
   365.94         101.8625
   366.08         101.5119
   366.22         101.4756
   366.36         101.7683
   366.50         102.3550
   366.64         103.1509
   366.78         104.0468
   366.92         104.9333
   367.06         105.7170
   367.20         106.3382
   367.34         106.7737
   367.48         107.0272
   367.62         107.1506
   367.76         107.2545
   367.90         107.4745
   368.04         107.9124
   368.18         108.6169
   368.32         109.6192
   368.46         110.9249
   368.60         112.4888
   368.74         114.2394
   368.88         116.1197
   369.02         118.0778
   369.16         120.0376
   369.30         121.9079
   369.44         123.6327
   369.58         125.2366
   369.72         126.7981
   369.86         128.3690
   370.00         129.9300
   370.14         131.4325
   370.28         132.8843
   370.42         134.3720
   370.56         136.0229
   370.70         137.9513
   370.84         140.1798
   370.98         142.6005
   371.12         145.0365
   371.26         147.3752
   371.40         149.6334
   371.54         151.8920
   371.68         154.2280
   371.82         156.6985
   371.96         159.3079
   372.10         161.9692
   372.24         164.5006
   372.38         166.6702
   372.52         168.3071
   372.66         169.4211
   372.80         170.2447
   372.94         171.1435
   373.08         172.4308
   373.22         174.2404
   373.36         176.5053
   373.50         179.0077
   373.64         181.4810
   373.78         183.6725
   373.92         185.3383
   374.06         186.2523
   374.20         186.2854
   374.34         185.4682
   374.48         183.9502
   374.62         181.9360
   374.76         179.7093
   374.90         177.6692
   375.04         176.2855
   375.18         175.9949
   375.32         177.0593
   375.46         179.4484
   375.60         182.7958
   375.74         186.4421
   375.88         189.6110
   376.02         191.6287
   376.16         192.0947
   376.30         190.9728
   376.44         188.5857
   376.58         185.5493
   376.72         182.6269
   376.86         180.5414
   377.00         179.8295
   377.14         180.7766
   377.28         183.4388
   377.42         187.7077
   377.56         193.3423
   377.70         199.9551
   377.84         207.0206
   377.98         213.9091
   378.12         219.9431
   378.26         224.4853
   378.40         227.0257
   378.54         227.2864
   378.68         225.2949
   378.82         221.3782
   378.96         216.0878
   379.10         210.1012
   379.24         204.1404
   379.38         198.8958
   379.52         194.9773
   379.66         192.8629
   379.80         192.8214
   379.94         194.8907
   380.08         198.9133
   380.22         204.5559
   380.36         211.3218
   380.50         218.5966
   380.64         225.7224
   380.78         232.0994
   380.92         237.2828
   381.06         241.0428
   381.20         243.3871
   381.34         244.5267
   381.48         244.7688
   381.62         244.3786
   381.76         243.5045
   381.90         242.1604
   382.04         240.2088
   382.18         237.4016
   382.32         233.5045
   382.46         228.4320
   382.60         222.3287
   382.74         215.5571
   382.88         208.6226
   383.02         202.0982
   383.16         196.5550
   383.30         192.5015
   383.44         190.3145
   383.58         190.1654
   383.72         192.0032
   383.86         195.5830
   384.00         200.4917
   384.14         206.1856
   384.28         212.0681
   384.42         217.5925
   384.56         222.3306
   384.70         226.0103
   384.84         228.5566
   384.98         230.0924
   385.12         230.8671
   385.26         231.1705
   385.40         231.2563
   385.54         231.3004
   385.68         231.3973
   385.82         231.5676
   385.96         231.7825
   386.10         231.9924
   386.24         232.1522
   386.38         232.2404
   386.52         232.2516
   386.66         232.1846
   386.80         232.0499
   386.94         231.8379
   387.08         231.4726
   387.22         230.7933
   387.36         229.5502
   387.50         227.4343
   387.64         224.1757
   387.78         219.6687
   387.92         214.0281
   388.06         207.5703
   388.20         200.7615
   388.34         194.1462
   388.48         188.2740
   388.62         183.6369
   388.76         180.6153
   388.90         179.4452
   389.04         180.2064
   389.18         182.8013
   389.32         186.9619
   389.46         192.2895
   389.60         198.2787
   389.74         204.3854
   389.88         210.1009
   390.02         214.9954
   390.16         218.7943
   390.30         221.4473
   390.44         223.1065
   390.58         224.0160
   390.72         224.4232
   390.86         224.5379
   391.00         224.5175
   391.14         224.4675
   391.28         224.4471
   391.42         224.4832
   391.56         224.5791
   391.70         224.7146
   391.84         224.8245
   391.98         224.7763
   392.12         224.3938
   392.26         223.5148
   392.40         222.0696
   392.54         220.1085
   392.68         217.7915
   392.82         215.3704
   392.96         213.1345
   393.10         211.3416
   393.24         210.1617
   393.38         209.6589
   393.52         209.8049
   393.66         210.5032
   393.80         211.6131
   393.94         212.9735
   394.08         214.4244
   394.22         215.8168
   394.36         217.0113
   394.50         217.8744
   394.64         218.3131
   394.78         218.3260
   394.92         217.9789
   395.06         217.3247
   395.20         216.3441
   395.34         214.9262
   395.48         212.8644
   395.62         209.8833
   395.76         205.7338
   395.90         200.3246
   396.04         193.8152
   396.18         186.5973
   396.32         179.2057
   396.46         172.2296
   396.60         166.2438
   396.74         161.7576
   396.88         159.1567
   397.02         158.6516
   397.16         160.2548
   397.30         163.7813
   397.44         168.8653
   397.58         175.0023
   397.72         181.6211
   397.86         188.1664
   398.00         194.1632
   398.14         199.2655
   398.28         203.3012
   398.42         206.2863
   398.56         208.3851
   398.70         209.8168
   398.84         210.7598
   398.98         211.3383
   399.12         211.6521
   399.26         211.7886
   399.40         211.8180
   399.54         211.7810
   399.68         211.6833
   399.82         211.5169
   399.96         211.2924
   400.10         211.0405
   400.24         210.7939
   400.38         210.5826
   400.52         210.4304
   400.66         210.3409
   400.80         210.2920
   400.94         210.2520
   401.08         210.2020
   401.22         210.1312
   401.36         210.0226
   401.50         209.8560
   401.64         209.6181
   401.78         209.3104
   401.92         208.9422
   402.06         208.5143
   402.20         208.0146
   402.34         207.4380
   402.48         206.8169
   402.62         206.2117
   402.76         205.6790
   402.90         205.2610
   403.04         204.9911
   403.18         204.8790
   403.32         204.8952
   403.46         204.9863
   403.60         205.0966
   403.74         205.1791
   403.88         205.1958
   404.02         205.1261
   404.16         204.9753
   404.30         204.7747
   404.44         204.5776
   404.58         204.4393
   404.72         204.4020
   404.86         204.5004
   405.00         204.7600
   405.14         205.1800
   405.28         205.7188
   405.42         206.3042
   405.56         206.8540
   405.70         207.2958
   405.84         207.5705
   405.98         207.6370
   406.12         207.4837
   406.26         207.1265
   406.40         206.5973
   406.54         205.9355
   406.68         205.1829
   406.82         204.3806
   406.96         203.5664
   407.10         202.7717
   407.24         202.0184
   407.38         201.3194
   407.52         200.6782
   407.66         200.0880
   407.80         199.5338
   407.94         198.9949
   408.08         198.4413
   408.22         197.8232
   408.36         197.0609
   408.50         196.0379
   408.64         194.5949
   408.78         192.5379
   408.92         189.6807
   409.06         185.9136
   409.20         181.2727
   409.34         175.9764
   409.48         170.4020
   409.62         165.0200
   409.76         160.3141
   409.90         156.7103
   410.04         154.5320
   410.18         153.9788
   410.32         155.1058
   410.46         157.8023
   410.60         161.8012
   410.74         166.7140
   410.88         172.0789
   411.02         177.4187
   411.16         182.2959
   411.30         186.3612
   411.44         189.3989
   411.58         191.3501
   411.72         192.3002
   411.86         192.4405
   412.00         192.0059
   412.14         191.2095
   412.28         190.2230
   412.42         189.1844
   412.56         188.2114
   412.70         187.4110
   412.84         186.8677
   412.98         186.6191
   413.12         186.6505
   413.26         186.9195
   413.40         187.3789
   413.54         187.9855
   413.68         188.6889
   413.82         189.4214
   413.96         190.1082
   414.10         190.6843
   414.24         191.1114
   414.38         191.3928
   414.52         191.5638
   414.66         191.6608
   414.80         191.7014
   414.94         191.6890
   415.08         191.6214
   415.22         191.4966
   415.36         191.3088
   415.50         191.0394
   415.64         190.6675
   415.78         190.1901
   415.92         189.6170
   416.06         188.9529
   416.20         188.1993
   416.34         187.3612
   416.48         186.4489
   416.62         185.4714
   416.76         184.4423
   416.90         183.3966
   417.04         182.3863
   417.18         181.4636
   417.32         180.6757
   417.46         180.0600
   417.60         179.6396
   417.74         179.4189
   417.88         179.3819
   418.02         179.4964
   418.16         179.7199
   418.30         180.0097
   418.44         180.3289
   418.58         180.6417
   418.72         180.9219
   418.86         181.1663
   419.00         181.3816
   419.14         181.5689
   419.28         181.7345
   419.42         181.9090
   419.56         182.1301
   419.70         182.4135
   419.84         182.7534
   419.98         183.1294
   420.12         183.5067
   420.26         183.8452
   420.40         184.1095
   420.54         184.2718
   420.68         184.3121
   420.82         184.2204
   420.96         184.0018
   421.10         183.6728
   421.24         183.2535
   421.38         182.7676
   421.52         182.2496
   421.66         181.7419
   421.80         181.2807
   421.94         180.8819
   422.08         180.5355
   422.22         180.2212
   422.36         179.9280
   422.50         179.6582
   422.64         179.4148
   422.78         179.1964
   422.92         179.0018
   423.06         178.8237
   423.20         178.6497
   423.34         178.4783
   423.48         178.3209
   423.62         178.1902
   423.76         178.0938
   423.90         178.0338
   424.04         178.0159
   424.18         178.0474
   424.32         178.1227
   424.46         178.2156
   424.60         178.2943
   424.74         178.3431
   424.88         178.3609
   425.02         178.3438
   425.16         178.2756
   425.30         178.1284
   425.44         177.8766
   425.58         177.5157
   425.72         177.0699
   425.86         176.5861
   426.00         176.1144
   426.14         175.6869
   426.28         175.3213
   426.42         175.0315
   426.56         174.8272
   426.70         174.7151
   426.84         174.6953
   426.98         174.7621
   427.12         174.9129
   427.26         175.1508
   427.40         175.4681
   427.54         175.8375
   427.68         176.2274
   427.82         176.6112
   427.96         176.9668
   428.10         177.2769
   428.24         177.5242
   428.38         177.6832
   428.52         177.7205
   428.66         177.6029
   428.80         177.3066
   428.94         176.8271
   429.08         176.1792
   429.22         175.3946
   429.36         174.5269
   429.50         173.6441
   429.64         172.8122
   429.78         172.0871
   429.92         171.5054
   430.06         171.0795
   430.20         170.8104
   430.34         170.6985
   430.48         170.7388
   430.62         170.9120
   430.76         171.1837
   430.90         171.5076
   431.04         171.8321
   431.18         172.1063
   431.32         172.2917
   431.46         172.3711
   431.60         172.3516
   431.74         172.2523
   431.88         172.0890
   432.02         171.8600
   432.16         171.5316
   432.30         171.0300
   432.44         170.2318
   432.58         168.9609
   432.72         167.0228
   432.86         164.2713
   433.00         160.6805
   433.14         156.3787
   433.28         151.6248
   433.42         146.7606
   433.56         142.1616
   433.70         138.1916
   433.84         135.1646
   433.98         133.3184
   434.12         132.7943
   434.26         133.6143
   434.40         135.6738
   434.54         138.7537
   434.68         142.5407
   434.82         146.6678
   434.96         150.7633
   435.10         154.5017
   435.24         157.6599
   435.38         160.1506
   435.52         162.0108
   435.66         163.3563
   435.80         164.3155
   435.94         164.9934
   436.08         165.4692
   436.22         165.7965
   436.36         166.0145
   436.50         166.1611
   436.64         166.2779
   436.78         166.3989
   436.92         166.5318
   437.06         166.6610
   437.20         166.7571
   437.34         166.7838
   437.48         166.7139
   437.62         166.5366
   437.76         166.2580
   437.90         165.8965
   438.04         165.4757
   438.18         165.0230
   438.32         164.5722
   438.46         164.1662
   438.60         163.8519
   438.74         163.6575
   438.88         163.5848
   439.02         163.6200
   439.16         163.7401
   439.30         163.9114
   439.44         164.0872
   439.58         164.2179
   439.72         164.2679
   439.86         164.2173
   440.00         164.0575
   440.14         163.7911
   440.28         163.4222
   440.42         162.9462
   440.56         162.3526
   440.70         161.6361
   440.84         160.8053
   440.98         159.8836
   441.12         158.9024
   441.26         157.8862
   441.40         156.8456
   441.54         155.7886
   441.68         154.7322
   441.82         153.6986
   441.96         152.7111
   442.10         151.7955
   442.24         150.9767
   442.38         150.2743
   442.52         149.6997
   442.66         149.2614
   442.80         148.9693
   442.94         148.8295
   443.08         148.8419
   443.22         149.0113
   443.36         149.3472
   443.50         149.8505
   443.64         150.5050
   443.78         151.2780
   443.92         152.1280
   444.06         153.0148
   444.20         153.9069
   444.34         154.7775
   444.48         155.5988
   444.62         156.3469
   444.76         157.0033
   444.90         157.5509
   445.04         157.9864
   445.18         158.3322
   445.32         158.6244
   445.46         158.8904
   445.60         159.1376
   445.74         159.3579
   445.88         159.5377
   446.02         159.6583
   446.16         159.7001
   446.30         159.6552
   446.44         159.5243
   446.58         159.2998
   446.72         158.9523
   446.86         158.4447
   447.00         157.7622
   447.14         156.9292
   447.28         156.0094
   447.42         155.0850
   447.56         154.2338
   447.70         153.5224
   447.84         152.9968
   447.98         152.6700
   448.12         152.5318
   448.26         152.5714
   448.40         152.7844
   448.54         153.1611
   448.68         153.6750
   448.82         154.2821
   448.96         154.9253
   449.10         155.5366
   449.24         156.0518
   449.38         156.4276
   449.52         156.6566
   449.66         156.7672
   449.80         156.8029
   449.94         156.7980
   450.08         156.7564
   450.22         156.6605
   450.36         156.4990
   450.50         156.2732
   450.64         155.9889
   450.78         155.6474
   450.92         155.2420
   451.06         154.7646
   451.20         154.2181
   451.34         153.6219
   451.48         153.0106
   451.62         152.4311
   451.76         151.9282
   451.90         151.5328
   452.04         151.2558
   452.18         151.0983
   452.32         151.0693
   452.46         151.1773
   452.60         151.4075
   452.74         151.7180
   452.88         152.0627
   453.02         152.4068
