# File SAO102986
# Wavelength [nm]    Normalized Amplitude
   349.70         3.5443
   349.84         3.5324
   349.98         3.5215
   350.12         3.5122
   350.26         3.5056
   350.40         3.5023
   350.54         3.5021
   350.68         3.5043
   350.82         3.5076
   350.96         3.5105
   351.10         3.5115
   351.24         3.5105
   351.38         3.5076
   351.52         3.5043
   351.66         3.5021
   351.80         3.5023
   351.94         3.5056
   352.08         3.5122
   352.22         3.5215
   352.36         3.5324
   352.50         3.5443
   352.64         3.5570
   352.78         3.5696
   352.92         3.5802
   353.06         3.5877
   353.20         3.5923
   353.34         3.5960
   353.48         3.6014
   353.62         3.6105
   353.76         3.6246
   353.90         3.6445
   354.04         3.6693
   354.18         3.6967
   354.32         3.7240
   354.46         3.7487
   354.60         3.7686
   354.74         3.7820
   354.88         3.7878
   355.02         3.7859
   355.16         3.7761
   355.30         3.7580
   355.44         3.7315
   355.58         3.6974
   355.72         3.6580
   355.86         3.6167
   356.00         3.5762
   356.14         3.5382
   356.28         3.5048
   356.42         3.4785
   356.56         3.4609
   356.70         3.4518
   356.84         3.4497
   356.98         3.4519
   357.12         3.4553
   357.26         3.4566
   357.40         3.4534
   357.54         3.4447
   357.68         3.4316
   357.82         3.4163
   357.96         3.4023
   358.10         3.3941
   358.24         3.3967
   358.38         3.4145
   358.52         3.4489
   358.66         3.4985
   358.80         3.5600
   358.94         3.6283
   359.08         3.6971
   359.22         3.7592
   359.36         3.8082
   359.50         3.8394
   359.64         3.8509
   359.78         3.8437
   359.92         3.8215
   360.06         3.7891
   360.20         3.7522
   360.34         3.7150
   360.48         3.6801
   360.62         3.6487
   360.76         3.6224
   360.90         3.6018
   361.04         3.5874
   361.18         3.5796
   361.32         3.5787
   361.46         3.5845
   361.60         3.5956
   361.74         3.6093
   361.88         3.6228
   362.02         3.6339
   362.16         3.6424
   362.30         3.6495
   362.44         3.6575
   362.58         3.6681
   362.72         3.6813
   362.86         3.6958
   363.00         3.7093
   363.14         3.7210
   363.28         3.7314
   363.42         3.7412
   363.56         3.7512
   363.70         3.7619
   363.84         3.7736
   363.98         3.7868
   364.12         3.8023
   364.26         3.8209
   364.40         3.8439
   364.54         3.8727
   364.68         3.9076
   364.82         3.9480
   364.96         3.9917
   365.10         4.0356
   365.24         4.0759
   365.38         4.1090
   365.52         4.1332
   365.66         4.1487
   365.80         4.1570
   365.94         4.1590
   366.08         4.1556
   366.22         4.1478
   366.36         4.1365
   366.50         4.1220
   366.64         4.1046
   366.78         4.0840
   366.92         4.0600
   367.06         4.0326
   367.20         4.0028
   367.34         3.9730
   367.48         3.9465
   367.62         3.9268
   367.76         3.9160
   367.90         3.9150
   368.04         3.9238
   368.18         3.9419
   368.32         3.9686
   368.46         4.0006
   368.60         4.0325
   368.74         4.0590
   368.88         4.0761
   369.02         4.0805
   369.16         4.0706
   369.30         4.0463
   369.44         4.0095
   369.58         3.9628
   369.72         3.9107
   369.86         3.8589
   370.00         3.8141
   370.14         3.7833
   370.28         3.7716
   370.42         3.7807
   370.56         3.8084
   370.70         3.8501
   370.84         3.8990
   370.98         3.9483
   371.12         3.9927
   371.26         4.0294
   371.40         4.0579
   371.54         4.0789
   371.68         4.0935
   371.82         4.1018
   371.96         4.1022
   372.10         4.0934
   372.24         4.0754
   372.38         4.0503
   372.52         4.0222
   372.66         3.9954
   372.80         3.9728
   372.94         3.9548
   373.08         3.9402
   373.22         3.9281
   373.36         3.9176
   373.50         3.9078
   373.64         3.8979
   373.78         3.8877
   373.92         3.8773
   374.06         3.8676
   374.20         3.8600
   374.34         3.8549
   374.48         3.8528
   374.62         3.8562
   374.76         3.8691
   374.90         3.8963
   375.04         3.9402
   375.18         3.9990
   375.32         4.0675
   375.46         4.1376
   375.60         4.2000
   375.74         4.2476
   375.88         4.2763
   376.02         4.2855
   376.16         4.2788
   376.30         4.2638
   376.44         4.2506
   376.58         4.2482
   376.72         4.2625
   376.86         4.2962
   377.00         4.3503
   377.14         4.4242
   377.28         4.5142
   377.42         4.6137
   377.56         4.7139
   377.70         4.8050
   377.84         4.8780
   377.98         4.9260
   378.12         4.9445
   378.26         4.9314
   378.40         4.8875
   378.54         4.8181
   378.68         4.7318
   378.82         4.6394
   378.96         4.5526
   379.10         4.4813
   379.24         4.4322
   379.38         4.4099
   379.52         4.4173
   379.66         4.4544
   379.80         4.5174
   379.94         4.5998
   380.08         4.6932
   380.22         4.7891
   380.36         4.8787
   380.50         4.9545
   380.64         5.0102
   380.78         5.0423
   380.92         5.0497
   381.06         5.0348
   381.20         5.0026
   381.34         4.9574
   381.48         4.9012
   381.62         4.8344
   381.76         4.7567
   381.90         4.6682
   382.04         4.5684
   382.18         4.4576
   382.32         4.3367
   382.46         4.2093
   382.60         4.0819
   382.74         3.9644
   382.88         3.8685
   383.02         3.8052
   383.16         3.7835
   383.30         3.8087
   383.44         3.8818
   383.58         3.9986
   383.72         4.1517
   383.86         4.3317
   384.00         4.5263
   384.14         4.7221
   384.28         4.9064
   384.42         5.0681
   384.56         5.1984
   384.70         5.2935
   384.84         5.3550
   384.98         5.3882
   385.12         5.4004
   385.26         5.4001
   385.40         5.3952
   385.54         5.3913
   385.68         5.3903
   385.82         5.3923
   385.96         5.3964
   386.10         5.4002
   386.24         5.4010
   386.38         5.3968
   386.52         5.3866
   386.66         5.3694
   386.80         5.3437
   386.94         5.3077
   387.08         5.2595
   387.22         5.1977
   387.36         5.1215
   387.50         5.0312
   387.64         4.9286
   387.78         4.8184
   387.92         4.7066
   388.06         4.6005
   388.20         4.5064
   388.34         4.4302
   388.48         4.3768
   388.62         4.3500
   388.76         4.3518
   388.90         4.3815
   389.04         4.4360
   389.18         4.5103
   389.32         4.5974
   389.46         4.6893
   389.60         4.7793
   389.74         4.8630
   389.88         4.9373
   390.02         5.0011
   390.16         5.0555
   390.30         5.1023
   390.44         5.1418
   390.58         5.1728
   390.72         5.1942
   390.86         5.2049
   391.00         5.2031
   391.14         5.1868
   391.28         5.1532
   391.42         5.0983
   391.56         5.0163
   391.70         4.9013
   391.84         4.7489
   391.98         4.5585
   392.12         4.3348
   392.26         4.0893
   392.40         3.8385
   392.54         3.6009
   392.68         3.3960
   392.82         3.2419
   392.96         3.1521
   393.10         3.1351
   393.24         3.1936
   393.38         3.3233
   393.52         3.5122
   393.66         3.7430
   393.80         3.9956
   393.94         4.2495
   394.08         4.4860
   394.22         4.6909
   394.36         4.8569
   394.50         4.9826
   394.64         5.0702
   394.78         5.1228
   394.92         5.1420
   395.06         5.1252
   395.20         5.0672
   395.34         4.9631
   395.48         4.8118
   395.62         4.6176
   395.76         4.3912
   395.90         4.1485
   396.04         3.9089
   396.18         3.6934
   396.32         3.5224
   396.46         3.4128
   396.60         3.3750
   396.74         3.4124
   396.88         3.5218
   397.02         3.6932
   397.16         3.9100
   397.30         4.1522
   397.44         4.4000
   397.58         4.6358
   397.72         4.8462
   397.86         5.0246
   398.00         5.1700
   398.14         5.2858
   398.28         5.3771
   398.42         5.4498
   398.56         5.5090
   398.70         5.5584
   398.84         5.6002
   398.98         5.6349
   399.12         5.6621
   399.26         5.6815
   399.40         5.6934
   399.54         5.7004
   399.68         5.7051
   399.82         5.7098
   399.96         5.7163
   400.10         5.7256
   400.24         5.7381
   400.38         5.7532
   400.52         5.7691
   400.66         5.7835
   400.80         5.7942
   400.94         5.8009
   401.08         5.8040
   401.22         5.8044
   401.36         5.8016
   401.50         5.7945
   401.64         5.7824
   401.78         5.7662
   401.92         5.7477
   402.06         5.7297
   402.20         5.7151
   402.34         5.7059
   402.48         5.7026
   402.62         5.7051
   402.76         5.7126
   402.90         5.7232
   403.04         5.7341
   403.18         5.7434
   403.32         5.7509
   403.46         5.7579
   403.60         5.7651
   403.74         5.7724
   403.88         5.7782
   404.02         5.7814
   404.16         5.7815
   404.30         5.7794
   404.44         5.7760
   404.58         5.7718
   404.72         5.7667
   404.86         5.7602
   405.00         5.7507
   405.14         5.7370
   405.28         5.7184
   405.42         5.6961
   405.56         5.6715
   405.70         5.6463
   405.84         5.6236
   405.98         5.6056
   406.12         5.5927
   406.26         5.5830
   406.40         5.5747
   406.54         5.5672
   406.68         5.5611
   406.82         5.5563
   406.96         5.5527
   407.10         5.5497
   407.24         5.5474
   407.38         5.5459
   407.52         5.5451
   407.66         5.5448
   407.80         5.5450
   407.94         5.5447
   408.08         5.5414
   408.22         5.5316
   408.36         5.5116
   408.50         5.4771
   408.64         5.4233
   408.78         5.3469
   408.92         5.2490
   409.06         5.1355
   409.20         5.0158
   409.34         4.8997
   409.48         4.7969
   409.62         4.7167
   409.76         4.6671
   409.90         4.6538
   410.04         4.6780
   410.18         4.7379
   410.32         4.8285
   410.46         4.9410
   410.60         5.0645
   410.74         5.1883
   410.88         5.3041
   411.02         5.4054
   411.16         5.4880
   411.30         5.5515
   411.44         5.5990
   411.58         5.6335
   411.72         5.6572
   411.86         5.6718
   412.00         5.6788
   412.14         5.6812
   412.28         5.6822
   412.42         5.6845
   412.56         5.6888
   412.70         5.6947
   412.84         5.7022
   412.98         5.7108
   413.12         5.7197
   413.26         5.7287
   413.40         5.7376
   413.54         5.7461
   413.68         5.7530
   413.82         5.7569
   413.96         5.7566
   414.10         5.7517
   414.24         5.7431
   414.38         5.7334
   414.52         5.7249
   414.66         5.7187
   414.80         5.7148
   414.94         5.7128
   415.08         5.7118
   415.22         5.7117
   415.36         5.7127
   415.50         5.7151
   415.64         5.7183
   415.78         5.7207
   415.92         5.7201
   416.06         5.7149
   416.20         5.7046
   416.34         5.6895
   416.48         5.6704
   416.62         5.6489
   416.76         5.6265
   416.90         5.6047
   417.04         5.5842
   417.18         5.5648
   417.32         5.5473
   417.46         5.5339
   417.60         5.5258
   417.74         5.5225
   417.88         5.5232
   418.02         5.5273
   418.16         5.5340
   418.30         5.5422
   418.44         5.5505
   418.58         5.5577
   418.72         5.5634
   418.86         5.5676
   419.00         5.5696
   419.14         5.5690
   419.28         5.5655
   419.42         5.5591
   419.56         5.5511
   419.70         5.5435
   419.84         5.5385
   419.98         5.5376
   420.12         5.5408
   420.26         5.5471
   420.40         5.5564
   420.54         5.5681
   420.68         5.5807
   420.82         5.5915
   420.96         5.5975
   421.10         5.5962
   421.24         5.5860
   421.38         5.5679
   421.52         5.5451
   421.66         5.5208
   421.80         5.4979
   421.94         5.4784
   422.08         5.4633
   422.22         5.4535
   422.36         5.4499
   422.50         5.4520
   422.64         5.4593
   422.78         5.4719
   422.92         5.4893
   423.06         5.5104
   423.20         5.5325
   423.34         5.5527
   423.48         5.5681
   423.62         5.5769
   423.76         5.5793
   423.90         5.5768
   424.04         5.5718
   424.18         5.5652
   424.32         5.5570
   424.46         5.5468
   424.60         5.5344
   424.74         5.5212
   424.88         5.5092
   425.02         5.5003
   425.16         5.4950
   425.30         5.4932
   425.44         5.4945
   425.58         5.4974
   425.72         5.4997
   425.86         5.4996
   426.00         5.4958
   426.14         5.4883
   426.28         5.4781
   426.42         5.4657
   426.56         5.4518
   426.70         5.4369
   426.84         5.4221
   426.98         5.4083
   427.12         5.3961
   427.26         5.3858
   427.40         5.3779
   427.54         5.3717
   427.68         5.3658
   427.82         5.3595
   427.96         5.3520
   428.10         5.3426
   428.24         5.3297
   428.38         5.3125
   428.52         5.2909
   428.66         5.2646
   428.80         5.2336
   428.94         5.1981
   429.08         5.1585
   429.22         5.1160
   429.36         5.0716
   429.50         5.0265
   429.64         4.9823
   429.78         4.9406
   429.92         4.9038
   430.06         4.8750
   430.20         4.8580
   430.34         4.8562
   430.48         4.8714
   430.62         4.9028
   430.76         4.9483
   430.90         5.0037
   431.04         5.0639
   431.18         5.1233
   431.32         5.1786
   431.46         5.2285
   431.60         5.2720
   431.74         5.3079
   431.88         5.3356
   432.02         5.3540
   432.16         5.3619
   432.30         5.3564
   432.44         5.3340
   432.58         5.2912
   432.72         5.2269
   432.86         5.1426
   433.00         5.0424
   433.14         4.9332
   433.28         4.8242
   433.42         4.7257
   433.56         4.6465
   433.70         4.5937
   433.84         4.5727
   433.98         4.5862
   434.12         4.6327
   434.26         4.7067
   434.40         4.8015
   434.54         4.9090
   434.68         5.0202
   434.82         5.1267
   434.96         5.2229
   435.10         5.3060
   435.24         5.3764
   435.38         5.4365
   435.52         5.4892
   435.66         5.5366
   435.80         5.5786
   435.94         5.6141
   436.08         5.6407
   436.22         5.6564
   436.36         5.6610
   436.50         5.6566
   436.64         5.6458
   436.78         5.6307
   436.92         5.6126
   437.06         5.5924
   437.20         5.5708
   437.34         5.5487
   437.48         5.5278
   437.62         5.5093
   437.76         5.4944
   437.90         5.4839
   438.04         5.4786
   438.18         5.4792
   438.32         5.4854
   438.46         5.4958
   438.60         5.5086
   438.74         5.5228
   438.88         5.5375
   439.02         5.5516
   439.16         5.5639
   439.30         5.5732
   439.44         5.5783
   439.58         5.5794
   439.72         5.5780
   439.86         5.5764
   440.00         5.5763
   440.14         5.5786
   440.28         5.5838
   440.42         5.5921
   440.56         5.6030
   440.70         5.6163
   440.84         5.6318
   440.98         5.6487
   441.12         5.6660
   441.26         5.6831
   441.40         5.7003
   441.54         5.7179
   441.68         5.7356
   441.82         5.7531
   441.96         5.7695
   442.10         5.7828
   442.24         5.7919
   442.38         5.7974
   442.52         5.8001
   442.66         5.8000
   442.80         5.7971
   442.94         5.7921
   443.08         5.7863
   443.22         5.7814
   443.36         5.7777
   443.50         5.7749
   443.64         5.7717
   443.78         5.7668
   443.92         5.7595
   444.06         5.7490
   444.20         5.7344
   444.34         5.7156
   444.48         5.6942
   444.62         5.6715
   444.76         5.6485
   444.90         5.6272
   445.04         5.6103
   445.18         5.5997
   445.32         5.5958
   445.46         5.5980
   445.60         5.6059
   445.74         5.6184
   445.88         5.6332
   446.02         5.6479
   446.16         5.6611
   446.30         5.6725
   446.44         5.6818
   446.58         5.6887
   446.72         5.6933
   446.86         5.6963
   447.00         5.6993
   447.14         5.7033
   447.28         5.7085
   447.42         5.7147
   447.56         5.7220
   447.70         5.7296
   447.84         5.7363
   447.98         5.7408
   448.12         5.7424
   448.26         5.7417
   448.40         5.7397
   448.54         5.7371
   448.68         5.7346
   448.82         5.7328
   448.96         5.7324
   449.10         5.7346
   449.24         5.7397
   449.38         5.7475
   449.52         5.7577
   449.66         5.7704
   449.80         5.7841
   449.94         5.7964
   450.08         5.8048
   450.22         5.8077
   450.36         5.8049
   450.50         5.7972
   450.64         5.7856
   450.78         5.7702
   450.92         5.7519
   451.06         5.7320
   451.20         5.7119
   451.34         5.6926
   451.48         5.6757
   451.62         5.6622
   451.76         5.6518
   451.90         5.6426
   452.04         5.6335
   452.18         5.6241
   452.32         5.6144
   452.46         5.6046
   452.60         5.5959
   452.74         5.5905
   452.88         5.5892
   453.02         5.5920
   453.16         5.5980
   453.30         5.6058
   453.44         5.6137
   453.58         5.6211
   453.72         5.6273
   453.86         5.6299
   454.00         5.6273
   454.14         5.6192
   454.28         5.6070
   454.42         5.5934
   454.56         5.5813
   454.70         5.5737
   454.84         5.5738
   454.98         5.5840
   455.12         5.6045
   455.26         5.6338
   455.40         5.6688
   455.54         5.7044
   455.68         5.7362
   455.82         5.7611
   455.96         5.7765
   456.10         5.7815
   456.24         5.7762
   456.38         5.7609
   456.52         5.7368
   456.66         5.7069
   456.80         5.6750
   456.94         5.6447
   457.08         5.6187
   457.22         5.5981
   457.36         5.5831
   457.50         5.5742
   457.64         5.5705
   457.78         5.5711
   457.92         5.5752
   458.06         5.5821
   458.20         5.5912
   458.34         5.6019
   458.48         5.6128
   458.62         5.6228
   458.76         5.6308
   458.90         5.6367
   459.04         5.6403
   459.18         5.6415
   459.32         5.6402
   459.46         5.6368
   459.60         5.6318
   459.74         5.6252
   459.88         5.6166
   460.02         5.6055
   460.16         5.5925
   460.30         5.5783
   460.44         5.5638
   460.58         5.5494
   460.72         5.5353
   460.86         5.5224
   461.00         5.5118
   461.14         5.5053
