# File SAO21446
# Wavelength [nm]    Normalized Amplitude
   349.70         7.3684
   349.84         7.3116
   349.98         7.2904
   350.12         7.3054
   350.26         7.3579
   350.40         7.4485
   350.54         7.5716
   350.68         7.7108
   350.82         7.8398
   350.96         7.9309
   351.10         7.9637
   351.24         7.9309
   351.38         7.8398
   351.52         7.7108
   351.66         7.5716
   351.80         7.4485
   351.94         7.3579
   352.08         7.3054
   352.22         7.2904
   352.36         7.3116
   352.50         7.3684
   352.64         7.4592
   352.78         7.5795
   352.92         7.7201
   353.06         7.8678
   353.20         8.0090
   353.34         8.1316
   353.48         8.2334
   353.62         8.3199
   353.76         8.3950
   353.90         8.4658
   354.04         8.5435
   354.18         8.6357
   354.32         8.7412
   354.46         8.8528
   354.60         8.9611
   354.74         9.0584
   354.88         9.1417
   355.02         9.2077
   355.16         9.2479
   355.30         9.2511
   355.44         9.2074
   355.58         9.1140
   355.72         8.9789
   355.86         8.8128
   356.00         8.6239
   356.14         8.4217
   356.28         8.2132
   356.42         8.0057
   356.56         7.8130
   356.70         7.6482
   356.84         7.5183
   356.98         7.4261
   357.12         7.3692
   357.26         7.3387
   357.40         7.3238
   357.54         7.3126
   357.68         7.2923
   357.82         7.2541
   357.96         7.1992
   358.10         7.1387
   358.24         7.0918
   358.38         7.0797
   358.52         7.1177
   358.66         7.2136
   358.80         7.3699
   358.94         7.5831
   359.08         7.8460
   359.22         8.1489
   359.36         8.4694
   359.50         8.7723
   359.64         9.0217
   359.78         9.1881
   359.92         9.2493
   360.06         9.1952
   360.20         9.0358
   360.34         8.8024
   360.48         8.5328
   360.62         8.2611
   360.76         8.0192
   360.90         7.8350
   361.04         7.7268
   361.18         7.6999
   361.32         7.7528
   361.46         7.8833
   361.60         8.0869
   361.74         8.3523
   361.88         8.6549
   362.02         8.9587
   362.16         9.2331
   362.30         9.4604
   362.44         9.6302
   362.58         9.7398
   362.72         9.8004
   362.86         9.8346
   363.00         9.8571
   363.14         9.8697
   363.28         9.8786
   363.42         9.8980
   363.56         9.9365
   363.70         9.9934
   363.84         10.0627
   363.98         10.1410
   364.12         10.2236
   364.26         10.2994
   364.40         10.3562
   364.54         10.3880
   364.68         10.3985
   364.82         10.4011
   364.96         10.4106
   365.10         10.4389
   365.24         10.4952
   365.38         10.5799
   365.52         10.6813
   365.66         10.7796
   365.80         10.8590
   365.94         10.9143
   366.08         10.9441
   366.22         10.9496
   366.36         10.9374
   366.50         10.9159
   366.64         10.8928
   366.78         10.8732
   366.92         10.8613
   367.06         10.8621
   367.20         10.8743
   367.34         10.8886
   367.48         10.8939
   367.62         10.8814
   367.76         10.8478
   367.90         10.7973
   368.04         10.7383
   368.18         10.6829
   368.32         10.6450
   368.46         10.6358
   368.60         10.6638
   368.74         10.7330
   368.88         10.8435
   369.02         10.9931
   369.16         11.1714
   369.30         11.3635
   369.44         11.5531
   369.58         11.7183
   369.72         11.8372
   369.86         11.8982
   370.00         11.9056
   370.14         11.8780
   370.28         11.8415
   370.42         11.8229
   370.56         11.8434
   370.70         11.9125
   370.84         12.0263
   370.98         12.1720
   371.12         12.3347
   371.26         12.5018
   371.40         12.6619
   371.54         12.8003
   371.68         12.8990
   371.82         12.9411
   371.96         12.9190
   372.10         12.8352
   372.24         12.6969
   372.38         12.5149
   372.52         12.3021
   372.66         12.0742
   372.80         11.8504
   372.94         11.6487
   373.08         11.4765
   373.22         11.3305
   373.36         11.2032
   373.50         11.0875
   373.64         10.9798
   373.78         10.8782
   373.92         10.7826
   374.06         10.6994
   374.20         10.6424
   374.34         10.6291
   374.48         10.6697
   374.62         10.7613
   374.76         10.8912
   374.90         11.0478
   375.04         11.2278
   375.18         11.4337
   375.32         11.6646
   375.46         11.9092
   375.60         12.1449
   375.74         12.3443
   375.88         12.4889
   376.02         12.5739
   376.16         12.6030
   376.30         12.5867
   376.44         12.5456
   376.58         12.5127
   376.72         12.5226
   376.86         12.5977
   377.00         12.7409
   377.14         12.9407
   377.28         13.1844
   377.42         13.4594
   377.56         13.7510
   377.70         14.0376
   377.84         14.2919
   377.98         14.4891
   378.12         14.6102
   378.26         14.6395
   378.40         14.5681
   378.54         14.3970
   378.68         14.1384
   378.82         13.8160
   378.96         13.4639
   379.10         13.1243
   379.24         12.8405
   379.38         12.6439
   379.52         12.5472
   379.66         12.5526
   379.80         12.6619
   379.94         12.8742
   380.08         13.1761
   380.22         13.5390
   380.36         13.9254
   380.50         14.2957
   380.64         14.6110
   380.78         14.8341
   380.92         14.9395
   381.06         14.9195
   381.20         14.7810
   381.34         14.5408
   381.48         14.2219
   381.62         13.8509
   381.76         13.4554
   381.90         13.0588
   382.04         12.6730
   382.18         12.3025
   382.32         11.9543
   382.46         11.6346
   382.60         11.3420
   382.74         11.0678
   382.88         10.8043
   383.02         10.5566
   383.16         10.3415
   383.30         10.1774
   383.44         10.0778
   383.58         10.0499
   383.72         10.0937
   383.86         10.2016
   384.00         10.3606
   384.14         10.5579
   384.28         10.7817
   384.42         11.0144
   384.56         11.2319
   384.70         11.4112
   384.84         11.5425
   384.98         11.6347
   385.12         11.7080
   385.26         11.7803
   385.40         11.8615
   385.54         11.9547
   385.68         12.0577
   385.82         12.1619
   385.96         12.2540
   386.10         12.3202
   386.24         12.3497
   386.38         12.3359
   386.52         12.2767
   386.66         12.1753
   386.80         12.0387
   386.94         11.8739
   387.08         11.6868
   387.22         11.4897
   387.36         11.3037
   387.50         11.1524
   387.64         11.0538
   387.78         11.0131
   387.92         11.0243
   388.06         11.0831
   388.20         11.1901
   388.34         11.3458
   388.48         11.5491
   388.62         11.7990
   388.76         12.0942
   388.90         12.4303
   389.04         12.7999
   389.18         13.1928
   389.32         13.5918
   389.46         13.9729
   389.60         14.3132
   389.74         14.5997
   389.88         14.8300
   390.02         15.0052
   390.16         15.1264
   390.30         15.1956
   390.44         15.2151
   390.58         15.1872
   390.72         15.1132
   390.86         14.9936
   391.00         14.8288
   391.14         14.6219
   391.28         14.3764
   391.42         14.0894
   391.56         13.7499
   391.70         13.3411
   391.84         12.8453
   391.98         12.2507
   392.12         11.5592
   392.26         10.7881
   392.40         9.9670
   392.54         9.1313
   392.68         8.3177
   392.82         7.5649
   392.96         6.9130
   393.10         6.4019
   393.24         6.0668
   393.38         5.9365
   393.52         6.0253
   393.66         6.3279
   393.80         6.8213
   393.94         7.4674
   394.08         8.2168
   394.22         9.0173
   394.36         9.8199
   394.50         10.5814
   394.64         11.2679
   394.78         11.8527
   394.92         12.3148
   395.06         12.6373
   395.20         12.8046
   395.34         12.8034
   395.48         12.6279
   395.62         12.2820
   395.76         11.7813
   395.90         11.1526
   396.04         10.4349
   396.18         9.6771
   396.32         8.9395
   396.46         8.2889
   396.60         7.7907
   396.74         7.5013
   396.88         7.4623
   397.02         7.6917
   397.16         8.1840
   397.30         8.9132
   397.44         9.8353
   397.58         10.8914
   397.72         12.0150
   397.86         13.1403
   398.00         14.2104
   398.14         15.1794
   398.28         16.0147
   398.42         16.6994
   398.56         17.2353
   398.70         17.6421
   398.84         17.9526
   398.98         18.2036
   399.12         18.4276
   399.26         18.6454
   399.40         18.8668
   399.54         19.0937
   399.68         19.3244
   399.82         19.5551
   399.96         19.7813
   400.10         19.9984
   400.24         20.2020
   400.38         20.3887
   400.52         20.5581
   400.66         20.7121
   400.80         20.8539
   400.94         20.9891
   401.08         21.1246
   401.22         21.2663
   401.36         21.4194
   401.50         21.5866
   401.64         21.7628
   401.78         21.9324
   401.92         22.0763
   402.06         22.1815
   402.20         22.2440
   402.34         22.2663
   402.48         22.2566
   402.62         22.2291
   402.76         22.1974
   402.90         22.1682
   403.04         22.1410
   403.18         22.1124
   403.32         22.0783
   403.46         22.0394
   403.60         22.0046
   403.74         21.9869
   403.88         21.9968
   404.02         22.0374
   404.16         22.1000
   404.30         22.1655
   404.44         22.2159
   404.58         22.2458
   404.72         22.2608
   404.86         22.2691
   405.00         22.2735
   405.14         22.2676
   405.28         22.2398
   405.42         22.1784
   405.56         22.0795
   405.70         21.9523
   405.84         21.8159
   405.98         21.6910
   406.12         21.5917
   406.26         21.5177
   406.40         21.4517
   406.54         21.3685
   406.68         21.2498
   406.82         21.0932
   406.96         20.9082
   407.10         20.7082
   407.24         20.5065
   407.38         20.3149
   407.52         20.1452
   407.66         20.0133
   407.80         19.9418
   407.94         19.9567
   408.08         20.0780
   408.22         20.3095
   408.36         20.6361
   408.50         21.0262
   408.64         21.4363
   408.78         21.8140
   408.92         22.1065
   409.06         22.2778
   409.20         22.3207
   409.34         22.2536
   409.48         22.1048
   409.62         21.8995
   409.76         21.6592
   409.90         21.4101
   410.04         21.1863
   410.18         21.0240
   410.32         20.9515
   410.46         20.9793
   410.60         21.0969
   410.74         21.2782
   410.88         21.4899
   411.02         21.6989
   411.16         21.8771
   411.30         22.0017
   411.44         22.0566
   411.58         22.0392
   411.72         21.9619
   411.86         21.8413
   412.00         21.6874
   412.14         21.5041
   412.28         21.2994
   412.42         21.0956
   412.56         20.9271
   412.70         20.8299
   412.84         20.8257
   412.98         20.9120
   413.12         21.0677
   413.26         21.2676
   413.40         21.4920
   413.54         21.7246
   413.68         21.9476
   413.82         22.1432
   413.96         22.2955
   414.10         22.3935
   414.24         22.4326
   414.38         22.4144
   414.52         22.3486
   414.66         22.2528
   414.80         22.1529
   414.94         22.0791
   415.08         22.0590
   415.22         22.1067
   415.36         22.2210
   415.50         22.3890
   415.64         22.5930
   415.78         22.8147
   415.92         23.0333
   416.06         23.2202
   416.20         23.3411
   416.34         23.3650
   416.48         23.2722
   416.62         23.0565
   416.76         22.7273
   416.90         22.3098
   417.04         21.8421
   417.18         21.3694
   417.32         20.9370
   417.46         20.5852
   417.60         20.3451
   417.74         20.2337
   417.88         20.2513
   418.02         20.3854
   418.16         20.6139
   418.30         20.9048
   418.44         21.2163
   418.58         21.5068
   418.72         21.7448
   418.86         21.9131
   419.00         22.0057
   419.14         22.0241
   419.28         21.9758
   419.42         21.8778
   419.56         21.7553
   419.70         21.6369
   419.84         21.5512
   419.98         21.5215
   420.12         21.5618
   420.26         21.6753
   420.40         21.8550
   420.54         22.0894
   420.68         22.3675
   420.82         22.6774
   420.96         23.0025
   421.10         23.3224
   421.24         23.6139
   421.38         23.8507
   421.52         24.0092
   421.66         24.0796
   421.80         24.0717
   421.94         24.0075
   422.08         23.9104
   422.22         23.7976
   422.36         23.6802
   422.50         23.5632
   422.64         23.4492
   422.78         23.3431
   422.92         23.2547
   423.06         23.1986
   423.20         23.1904
   423.34         23.2355
   423.48         23.3216
   423.62         23.4261
   423.76         23.5292
   423.90         23.6212
   424.04         23.7035
   424.18         23.7866
   424.32         23.8836
   424.46         23.9980
   424.60         24.1197
   424.74         24.2318
   424.88         24.3219
   425.02         24.3885
   425.16         24.4416
   425.30         24.4981
   425.44         24.5739
   425.58         24.6754
   425.72         24.7952
   425.86         24.9114
   426.00         24.9956
   426.14         25.0252
   426.28         24.9942
   426.42         24.9133
   426.56         24.7992
   426.70         24.6673
   426.84         24.5302
   426.98         24.3983
   427.12         24.2807
   427.26         24.1853
   427.40         24.1173
   427.54         24.0768
   427.68         24.0555
   427.82         24.0355
   427.96         23.9934
   428.10         23.9103
   428.24         23.7767
   428.38         23.5896
   428.52         23.3506
   428.66         23.0669
   428.80         22.7491
   428.94         22.4070
   429.08         22.0464
   429.22         21.6692
   429.36         21.2764
   429.50         20.8720
   429.64         20.4639
   429.78         20.0655
   429.92         19.6959
   430.06         19.3762
   430.20         19.1268
   430.34         18.9724
   430.48         18.9494
   430.62         19.0971
   430.76         19.4392
   430.90         19.9700
   431.04         20.6567
   431.18         21.4493
   431.32         22.2916
   431.46         23.1314
   431.60         23.9301
   431.74         24.6629
   431.88         25.3130
   432.02         25.8700
   432.16         26.3318
   432.30         26.7020
   432.44         26.9822
   432.58         27.1629
   432.72         27.2240
   432.86         27.1476
   433.00         26.9328
   433.14         26.5946
   433.28         26.1554
   433.42         25.6438
   433.56         25.1006
   433.70         24.5758
   433.84         24.1174
   433.98         23.7634
   434.12         23.5434
   434.26         23.4801
   434.40         23.5819
   434.54         23.8387
   434.68         24.2255
   434.82         24.7035
   434.96         25.2263
   435.10         25.7507
   435.24         26.2478
   435.38         26.7072
   435.52         27.1294
   435.66         27.5173
   435.80         27.8718
   435.94         28.1891
   436.08         28.4572
   436.22         28.6549
   436.36         28.7590
   436.50         28.7585
   436.64         28.6649
   436.78         28.5122
   436.92         28.3400
   437.06         28.1715
   437.20         28.0048
   437.34         27.8258
   437.48         27.6250
   437.62         27.4035
   437.76         27.1662
   437.90         26.9149
   438.04         26.6508
   438.18         26.3787
   438.32         26.1112
   438.46         25.8682
   438.60         25.6676
   438.74         25.5179
   438.88         25.4241
   439.02         25.3961
   439.16         25.4422
   439.30         25.5566
   439.44         25.7152
   439.58         25.8809
   439.72         26.0145
   439.86         26.0951
   440.00         26.1320
   440.14         26.1505
   440.28         26.1686
   440.42         26.1904
   440.56         26.2127
   440.70         26.2347
   440.84         26.2563
   440.98         26.2753
   441.12         26.2889
   441.26         26.2954
   441.40         26.2952
   441.54         26.2924
   441.68         26.2909
   441.82         26.2892
   441.96         26.2798
   442.10         26.2556
   442.24         26.2131
   442.38         26.1575
   442.52         26.1076
   442.66         26.0860
   442.80         26.1048
   442.94         26.1612
   443.08         26.2413
   443.22         26.3325
   443.36         26.4295
   443.50         26.5295
   443.64         26.6303
   443.78         26.7318
   443.92         26.8344
   444.06         26.9346
   444.20         27.0246
   444.34         27.0957
   444.48         27.1401
   444.62         27.1534
   444.76         27.1352
   444.90         27.0892
   445.04         27.0231
   445.18         26.9459
   445.32         26.8625
   445.46         26.7699
   445.60         26.6625
   445.74         26.5454
   445.88         26.4421
   446.02         26.3881
   446.16         26.4195
   446.30         26.5666
   446.44         26.8455
   446.58         27.2537
   446.72         27.7664
   446.86         28.3398
   447.00         28.9216
   447.14         29.4668
   447.28         29.9457
   447.42         30.3403
   447.56         30.6385
   447.70         30.8304
   447.84         30.9132
   447.98         30.8921
   448.12         30.7813
   448.26         30.6049
   448.40         30.3948
   448.54         30.1885
   448.68         30.0216
   448.82         29.9178
   448.96         29.8866
   449.10         29.9313
   449.24         30.0533
   449.38         30.2501
   449.52         30.5164
   449.66         30.8481
   449.80         31.2405
   449.94         31.6792
   450.08         32.1341
   450.22         32.5650
   450.36         32.9347
   450.50         33.2147
   450.64         33.3856
   450.78         33.4394
   450.92         33.3757
   451.06         33.2002
   451.20         32.9257
   451.34         32.5682
   451.48         32.1449
   451.62         31.6775
   451.76         31.1907
   451.90         30.7026
   452.04         30.2249
   452.18         29.7689
   452.32         29.3515
   452.46         28.9983
   452.60         28.7340
   452.74         28.5708
   452.88         28.5085
   453.02         28.5403
   453.16         28.6536
   453.30         28.8303
   453.44         29.0483
   453.58         29.2780
   453.72         29.4869
   453.86         29.6499
   454.00         29.7529
   454.14         29.7885
   454.28         29.7566
   454.42         29.6683
   454.56         29.5469
   454.70         29.4222
   454.84         29.3238
   454.98         29.2790
   455.12         29.3036
   455.26         29.3934
   455.40         29.5334
   455.54         29.7132
   455.68         29.9284
   455.82         30.1700
   455.96         30.4235
   456.10         30.6758
   456.24         30.9176
   456.38         31.1425
   456.52         31.3450
   456.66         31.5165
   456.80         31.6439
   456.94         31.7167
   457.08         31.7297
   457.22         31.6811
   457.36         31.5723
   457.50         31.4105
