# File SAO21536
# Wavelength [nm]    Normalized Amplitude
   349.70         38.8243
   349.84         38.9114
   349.98         38.9042
   350.12         38.8124
   350.26         38.6563
   350.40         38.4647
   350.54         38.2696
   350.68         38.0993
   350.82         37.9728
   350.96         37.8972
   351.10         37.8721
   351.24         37.8972
   351.38         37.9728
   351.52         38.0993
   351.66         38.2696
   351.80         38.4647
   351.94         38.6563
   352.08         38.8124
   352.22         38.9042
   352.36         38.9114
   352.50         38.8243
   352.64         38.6448
   352.78         38.3898
   352.92         38.0902
   353.06         37.7835
   353.20         37.5102
   353.34         37.3080
   353.48         37.2049
   353.62         37.2140
   353.76         37.3307
   353.90         37.5345
   354.04         37.7971
   354.18         38.0871
   354.32         38.3709
   354.46         38.6223
   354.60         38.8289
   354.74         38.9853
   354.88         39.0866
   355.02         39.1301
   355.16         39.1186
   355.30         39.0572
   355.44         38.9470
   355.58         38.7835
   355.72         38.5609
   355.86         38.2770
   356.00         37.9339
   356.14         37.5409
   356.28         37.1165
   356.42         36.6846
   356.56         36.2691
   356.70         35.8912
   356.84         35.5687
   356.98         35.3137
   357.12         35.1265
   357.26         34.9869
   357.40         34.8609
   357.54         34.7204
   357.68         34.5545
   357.82         34.3628
   357.96         34.1489
   358.10         33.9292
   358.24         33.7363
   358.38         33.6063
   358.52         33.5669
   358.66         33.6326
   358.80         33.8013
   358.94         34.0549
   359.08         34.3666
   359.22         34.7112
   359.36         35.0707
   359.50         35.4314
   359.64         35.7723
   359.78         36.0604
   359.92         36.2635
   360.06         36.3656
   360.20         36.3679
   360.34         36.2798
   360.48         36.1147
   360.62         35.8909
   360.76         35.6339
   360.90         35.3696
   361.04         35.1181
   361.18         34.8983
   361.32         34.7307
   361.46         34.6342
   361.60         34.6255
   361.74         34.7130
   361.88         34.8869
   362.02         35.1181
   362.16         35.3651
   362.30         35.5872
   362.44         35.7572
   362.58         35.8659
   362.72         35.9156
   362.86         35.9203
   363.00         35.9050
   363.14         35.8924
   363.28         35.9020
   363.42         35.9585
   363.56         36.0820
   363.70         36.2758
   363.84         36.5319
   363.98         36.8327
   364.12         37.1494
   364.26         37.4546
   364.40         37.7276
   364.54         37.9538
   364.68         38.1316
   364.82         38.2710
   364.96         38.3842
   365.10         38.4787
   365.24         38.5576
   365.38         38.6222
   365.52         38.6799
   365.66         38.7392
   365.80         38.8019
   365.94         38.8728
   366.08         38.9606
   366.22         39.0648
   366.36         39.1783
   366.50         39.2993
   366.64         39.4301
   366.78         39.5753
   366.92         39.7436
   367.06         39.9366
   367.20         40.1442
   367.34         40.3512
   367.48         40.5438
   367.62         40.7230
   367.76         40.9099
   367.90         41.1337
   368.04         41.4170
   368.18         41.7779
   368.32         42.2306
   368.46         42.7819
   368.60         43.4369
   368.74         44.1998
   368.88         45.0660
   369.02         46.0173
   369.16         47.0133
   369.30         47.9914
   369.44         48.8902
   369.58         49.6706
   369.72         50.3087
   369.86         50.7884
   370.00         51.1125
   370.14         51.3125
   370.28         51.4491
   370.42         51.6019
   370.56         51.8497
   370.70         52.2447
   370.84         52.7926
   370.98         53.4554
   371.12         54.1742
   371.26         54.8990
   371.40         55.5971
   371.54         56.2427
   371.68         56.8098
   371.82         57.2769
   371.96         57.6304
   372.10         57.8592
   372.24         57.9450
   372.38         57.8717
   372.52         57.6624
   372.66         57.3973
   372.80         57.1952
   372.94         57.1798
   373.08         57.4368
   373.22         57.9774
   373.36         58.7342
   373.50         59.5924
   373.64         60.4272
   373.78         61.1258
   373.92         61.5974
   374.06         61.7875
   374.20         61.6933
   374.34         61.3609
   374.48         60.8657
   374.62         60.2982
   374.76         59.7680
   374.90         59.4090
   375.04         59.3671
   375.18         59.7617
   375.32         60.6323
   375.46         61.9044
   375.60         63.3935
   375.74         64.8480
   375.88         66.0208
   376.02         66.7373
   376.16         66.9344
   376.30         66.6680
   376.44         66.0988
   376.58         65.4666
   376.72         65.0508
   376.86         65.1065
   377.00         65.8023
   377.14         67.2056
   377.28         69.2916
   377.42         71.9528
   377.56         75.0126
   377.70         78.2422
   377.84         81.3771
   377.98         84.1358
   378.12         86.2474
   378.26         87.4897
   378.40         87.7277
   378.54         86.9402
   378.68         85.2353
   378.82         82.8390
   378.96         80.0593
   379.10         77.2440
   379.24         74.7337
   379.38         72.8221
   379.52         71.7267
   379.66         71.5851
   379.80         72.4518
   379.94         74.2767
   380.08         76.9056
   380.22         80.1155
   380.36         83.6542
   380.50         87.2636
   380.64         90.6950
   380.78         93.7330
   380.92         96.2261
   381.06         98.0990
   381.20         99.3423
   381.34         99.9945
   381.48         100.1109
   381.62         99.7302
   381.76         98.8610
   381.90         97.4862
   382.04         95.5790
   382.18         93.1238
   382.32         90.1415
   382.46         86.7051
   382.60         82.9533
   382.74         79.1087
   382.88         75.4685
   383.02         72.3536
   383.16         70.0480
   383.30         68.7610
   383.44         68.6030
   383.58         69.5679
   383.72         71.5453
   383.86         74.3620
   384.00         77.8117
   384.14         81.6571
   384.28         85.6329
   384.42         89.4678
   384.56         92.9244
   384.70         95.8481
   384.84         98.1955
   384.98         100.0173
   385.12         101.4139
   385.26         102.5006
   385.40         103.3899
   385.54         104.1752
   385.68         104.9097
   385.82         105.5946
   385.96         106.1946
   386.10         106.6699
   386.24         106.9934
   386.38         107.1492
   386.52         107.1224
   386.66         106.8804
   386.80         106.3719
   386.94         105.5355
   387.08         104.3088
   387.22         102.6413
   387.36         100.4983
   387.50         97.8573
   387.64         94.7239
   387.78         91.1600
   387.92         87.2980
   388.06         83.3290
   388.20         79.4752
   388.34         75.9692
   388.48         73.0376
   388.62         70.8876
   388.76         69.6860
   388.90         69.5189
   389.04         70.3727
   389.18         72.1430
   389.32         74.6500
   389.46         77.6652
   389.60         80.9458
   389.74         84.2621
   389.88         87.4149
   390.02         90.2465
   390.16         92.6506
   390.30         94.5805
   390.44         96.0358
   390.58         97.0407
   390.72         97.6369
   390.86         97.8814
   391.00         97.8440
   391.14         97.5846
   391.28         97.1268
   391.42         96.4477
   391.56         95.4695
   391.70         94.0651
   391.84         92.0829
   391.98         89.3939
   392.12         85.9387
   392.26         81.7547
   392.40         76.9849
   392.54         71.8762
   392.68         66.7634
   392.82         62.0360
   392.96         58.0904
   393.10         55.2769
   393.24         53.8535
   393.38         53.9462
   393.52         55.5236
   393.66         58.3980
   393.80         62.2481
   393.94         66.6733
   394.08         71.2635
   394.22         75.6435
   394.36         79.5025
   394.50         82.6335
   394.64         84.9526
   394.78         86.4698
   394.92         87.2349
   395.06         87.2937
   395.20         86.6590
   395.34         85.2991
   395.48         83.1595
   395.62         80.2074
   395.76         76.4784
   395.90         72.1043
   396.04         67.3185
   396.18         62.4457
   396.32         57.8735
   396.46         54.0036
   396.60         51.2022
   396.74         49.7487
   396.88         49.7923
   397.02         51.3446
   397.16         54.2961
   397.30         58.4208
   397.44         63.3881
   397.58         68.8098
   397.72         74.3002
   397.86         79.5220
   398.00         84.2207
   398.14         88.2456
   398.28         91.5439
   398.42         94.1371
   398.56         96.0969
   398.70         97.5296
   398.84         98.5534
   398.98         99.2706
   399.12         99.7544
   399.26         100.0596
   399.40         100.2377
   399.54         100.3437
   399.68         100.4417
   399.82         100.5952
   399.96         100.8458
   400.10         101.2116
   400.24         101.6998
   400.38         102.3114
   400.52         103.0394
   400.66         103.8644
   400.80         104.7478
   400.94         105.6336
   401.08         106.4600
   401.22         107.1740
   401.36         107.7395
   401.50         108.1253
   401.64         108.2933
   401.78         108.2105
   401.92         107.8691
   402.06         107.2894
   402.20         106.5138
   402.34         105.6060
   402.48         104.6502
   402.62         103.7408
   402.76         102.9684
   402.90         102.4100
   403.04         102.1122
   403.18         102.0801
   403.32         102.2789
   403.46         102.6504
   403.60         103.1352
   403.74         103.6821
   403.88         104.2423
   404.02         104.7590
   404.16         105.1628
   404.30         105.3919
   404.44         105.4284
   404.58         105.3057
   404.72         105.0840
   404.86         104.8222
   405.00         104.5614
   405.14         104.3227
   405.28         104.1114
   405.42         103.9272
   405.56         103.7721
   405.70         103.6451
   405.84         103.5383
   405.98         103.4406
   406.12         103.3358
   406.26         103.1868
   406.40         102.9327
   406.54         102.5172
   406.68         101.9262
   406.82         101.1974
   406.96         100.4009
   407.10         99.6094
   407.24         98.8761
   407.38         98.2339
   407.52         97.7073
   407.66         97.3201
   407.80         97.0908
   407.94         97.0179
   408.08         97.0642
   408.22         97.1512
   408.36         97.1637
   408.50         96.9603
   408.64         96.3905
   408.78         95.3117
   408.92         93.6218
   409.06         91.3071
   409.20         88.4699
   409.34         85.3059
   409.48         82.0524
   409.62         78.9505
   409.76         76.2287
   409.90         74.0972
   410.04         72.7334
   410.18         72.2610
   410.32         72.7275
   410.46         74.0858
   410.60         76.1965
   410.74         78.8557
   410.88         81.8262
   411.02         84.8635
   411.16         87.7427
   411.30         90.2826
   411.44         92.3613
   411.58         93.9249
   411.72         94.9843
   411.86         95.5985
   412.00         95.8492
   412.14         95.8263
   412.28         95.6317
   412.42         95.3795
   412.56         95.1863
   412.70         95.1543
   412.84         95.3475
   412.98         95.7724
   413.12         96.3854
   413.26         97.1254
   413.40         97.9342
   413.54         98.7503
   413.68         99.5056
   413.82         100.1359
   413.96         100.5895
   414.10         100.8318
   414.24         100.8564
   414.38         100.6928
   414.52         100.3978
   414.66         100.0359
   414.80         99.6649
   414.94         99.3309
   415.08         99.0664
   415.22         98.8903
   415.36         98.8092
   415.50         98.8146
   415.64         98.8806
   415.78         98.9697
   415.92         99.0272
   416.06         98.9824
   416.20         98.7667
   416.34         98.3328
   416.48         97.6587
   416.62         96.7493
   416.76         95.6486
   416.90         94.4410
   417.04         93.2275
   417.18         92.1020
   417.32         91.1449
   417.46         90.4210
   417.60         89.9791
   417.74         89.8488
   417.88         90.0324
   418.02         90.5019
   418.16         91.1949
   418.30         92.0163
   418.44         92.8553
   418.58         93.6137
   418.72         94.2287
   418.86         94.6719
   419.00         94.9315
   419.14         95.0050
   419.28         94.9088
   419.42         94.6848
   419.56         94.3882
   419.70         94.0728
   419.84         93.7966
   419.98         93.6223
   420.12         93.6006
   420.26         93.7563
   420.40         94.0874
   420.54         94.5688
   420.68         95.1564
   420.82         95.7951
   420.96         96.4222
   421.10         96.9726
   421.24         97.3828
   421.38         97.5932
   421.52         97.5727
   421.66         97.3368
   421.80         96.9350
   421.94         96.4256
   422.08         95.8592
   422.22         95.2761
   422.36         94.7104
   422.50         94.1940
   422.64         93.7551
   422.78         93.4157
   422.92         93.1944
   423.06         93.1037
   423.20         93.1373
   423.34         93.2645
   423.48         93.4384
   423.62         93.6067
   423.76         93.7267
   423.90         93.7792
   424.04         93.7776
   424.18         93.7643
   424.32         93.7786
   424.46         93.8281
   424.60         93.8940
   424.74         93.9569
   424.88         94.0149
   425.02         94.0839
   425.16         94.1866
   425.30         94.3423
   425.44         94.5577
   425.58         94.8171
   425.72         95.0805
   425.86         95.2972
   426.00         95.4268
   426.14         95.4489
   426.28         95.3655
   426.42         95.2012
   426.56         94.9974
   426.70         94.7984
   426.84         94.6364
   426.98         94.5235
   427.12         94.4568
   427.26         94.4322
   427.40         94.4468
   427.54         94.4883
   427.68         94.5312
   427.82         94.5421
   427.96         94.4876
   428.10         94.3402
   428.24         94.0795
   428.38         93.6952
   428.52         93.1913
   428.66         92.5793
   428.80         91.8718
   428.94         91.0861
   429.08         90.2471
   429.22         89.3850
   429.36         88.5312
   429.50         87.7189
   429.64         86.9872
   429.78         86.3787
   429.92         85.9239
   430.06         85.6292
   430.20         85.4899
   430.34         85.5072
   430.48         85.6831
   430.62         86.0025
   430.76         86.4250
   430.90         86.8946
   431.04         87.3555
   431.18         87.7595
   431.32         88.0711
   431.46         88.2758
   431.60         88.3798
   431.74         88.3965
   431.88         88.3323
   432.02         88.1767
   432.16         87.8951
   432.30         87.4284
   432.44         86.6897
   432.58         85.5747
   432.72         83.9999
   432.86         81.9410
   433.00         79.4475
   433.14         76.6366
   433.28         73.6832
   433.42         70.8045
   433.56         68.2334
   433.70         66.1771
   433.84         64.7913
   433.98         64.1797
   434.12         64.3967
   434.26         65.4403
   434.40         67.2404
   434.54         69.6585
   434.68         72.4998
   434.82         75.5460
   434.96         78.5893
   435.10         81.4581
   435.24         84.0398
   435.38         86.2830
   435.52         88.1794
   435.66         89.7444
   435.80         91.0027
   435.94         91.9765
   436.08         92.6766
   436.22         93.1091
   436.36         93.2958
   436.50         93.2905
   436.64         93.1766
   436.78         93.0368
   436.92         92.9160
   437.06         92.8088
   437.20         92.6810
   437.34         92.5030
   437.48         92.2651
   437.62         91.9664
   437.76         91.6058
   437.90         91.1805
   438.04         90.6839
   438.18         90.1162
   438.32         89.4954
   438.46         88.8530
   438.60         88.2179
   438.74         87.6168
   438.88         87.0870
   439.02         86.6706
   439.16         86.3924
   439.30         86.2513
   439.44         86.2205
   439.58         86.2637
   439.72         86.3587
   439.86         86.5031
   440.00         86.6936
   440.14         86.9022
   440.28         87.0708
   440.42         87.1301
   440.56         87.0308
   440.70         86.7609
   440.84         86.3443
   440.98         85.8281
   441.12         85.2686
   441.26         84.7239
   441.40         84.2539
   441.54         83.9126
   441.68         83.7303
   441.82         83.7039
   441.96         83.8017
   442.10         83.9783
   442.24         84.1905
   442.38         84.4085
   442.52         84.6123
   442.66         84.7813
   442.80         84.8918
   442.94         84.9220
   443.08         84.8691
   443.22         84.7593
   443.36         84.6341
   443.50         84.5326
   443.64         84.4795
   443.78         84.4890
   443.92         84.5721
   444.06         84.7315
   444.20         84.9539
   444.34         85.2122
   444.48         85.4743
   444.62         85.7107
   444.76         85.9002
   444.90         86.0292
   445.04         86.0870
   445.18         86.0581
   445.32         85.9221
   445.46         85.6624
   445.60         85.2843
   445.74         84.8305
   445.88         84.3729
   446.02         83.9875
   446.16         83.7336
   446.30         83.6523
   446.44         83.7737
   446.58         84.1028
   446.72         84.6009
   446.86         85.1979
   447.00         85.8260
   447.14         86.4319
   447.28         86.9756
   447.42         87.4244
   447.56         87.7477
   447.70         87.9212
   447.84         87.9345
   447.98         87.7951
   448.12         87.5302
   448.26         87.1950
   448.40         86.8735
   448.54         86.6544
   448.68         86.6005
   448.82         86.7374
   448.96         87.0659
   449.10         87.5673
   449.24         88.2014
   449.38         88.9144
   449.52         89.6595
   449.66         90.4062
   449.80         91.1296
   449.94         91.7999
   450.08         92.3765
   450.22         92.8191
   450.36         93.1046
   450.50         93.2294
   450.64         93.2011
   450.78         93.0334
   450.92         92.7458
   451.06         92.3602
   451.20         91.8935
   451.34         91.3553
   451.48         90.7514
   451.62         90.0930
   451.76         89.3985
   451.90         88.6894
   452.04         87.9887
   452.18         87.3305
   452.32         86.7628
   452.46         86.3331
   452.60         86.0685
   452.74         85.9657
   452.88         86.0040
   453.02         86.1569
   453.16         86.3934
   453.30         86.6759
   453.44         86.9566
   453.58         87.1821
   453.72         87.3064
   453.86         87.3007
   454.00         87.1483
   454.14         86.8460
   454.28         86.4157
   454.42         85.9036
   454.56         85.3667
   454.70         84.8692
   454.84         84.4770
   454.98         84.2396
   455.12         84.1751
   455.26         84.2754
   455.40         84.5242
   455.54         84.9042
   455.68         85.3888
   455.82         85.9326
   455.96         86.4776
   456.10         86.9707
   456.24         87.3769
   456.38         87.6777
