# File SAO23888
# Wavelength [nm]    Normalized Amplitude
   349.70         3.0352
   349.84         3.3015
   349.98         3.5693
   350.12         3.8220
   350.26         4.0406
   350.40         4.2124
   350.54         4.3399
   350.68         4.4360
   350.82         4.5121
   350.96         4.5689
   351.10         4.5917
   351.24         4.5689
   351.38         4.5121
   351.52         4.4360
   351.66         4.3399
   351.80         4.2124
   351.94         4.0406
   352.08         3.8220
   352.22         3.5693
   352.36         3.3015
   352.50         3.0352
   352.64         2.7879
   352.78         2.5812
   352.92         2.4360
   353.06         2.3678
   353.20         2.3853
   353.34         2.4890
   353.48         2.6721
   353.62         2.9242
   353.76         3.2284
   353.90         3.5589
   354.04         3.8832
   354.18         4.1684
   354.32         4.3928
   354.46         4.5500
   354.60         4.6405
   354.74         4.6669
   354.88         4.6353
   355.02         4.5563
   355.16         4.4439
   355.30         4.3167
   355.44         4.1885
   355.58         4.0570
   355.72         3.9083
   355.86         3.7343
   356.00         3.5387
   356.14         3.3243
   356.28         3.0893
   356.42         2.8372
   356.56         2.5850
   356.70         2.3605
   356.84         2.1876
   356.98         2.0729
   357.12         2.0111
   357.26         1.9978
   357.40         2.0323
   357.54         2.1146
   357.68         2.2357
   357.82         2.3770
   357.96         2.5192
   358.10         2.6475
   358.24         2.7536
   358.38         2.8352
   358.52         2.8973
   358.66         2.9498
   358.80         3.0029
   358.94         3.0624
   359.08         3.1310
   359.22         3.2101
   359.36         3.3019
   359.50         3.4110
   359.64         3.5431
   359.78         3.7042
   359.92         3.8939
   360.06         4.1007
   360.20         4.3049
   360.34         4.4867
   360.48         4.6331
   360.62         4.7410
   360.76         4.8121
   360.90         4.8401
   361.04         4.8126
   361.18         4.7271
   361.32         4.5924
   361.46         4.4200
   361.60         4.2216
   361.74         4.0098
   361.88         3.7967
   362.02         3.5914
   362.16         3.3952
   362.30         3.2030
   362.44         3.0105
   362.58         2.8176
   362.72         2.6324
   362.86         2.4655
   363.00         2.3243
   363.14         2.2138
   363.28         2.1364
   363.42         2.0881
   363.56         2.0628
   363.70         2.0630
   363.84         2.1010
   363.98         2.1853
   364.12         2.3118
   364.26         2.4665
   364.40         2.6323
   364.54         2.7977
   364.68         2.9515
   364.82         3.0837
   364.96         3.1921
   365.10         3.2776
   365.24         3.3388
   365.38         3.3727
   365.52         3.3745
   365.66         3.3402
   365.80         3.2674
   365.94         3.1606
   366.08         3.0356
   366.22         2.9116
   366.36         2.8049
   366.50         2.7299
   366.64         2.6991
   366.78         2.7237
   366.92         2.8093
   367.06         2.9498
   367.20         3.1325
   367.34         3.3438
   367.48         3.5710
   367.62         3.7939
   367.76         3.9838
   367.90         4.1204
   368.04         4.2024
   368.18         4.2430
   368.32         4.2592
   368.46         4.2732
   368.60         4.3139
   368.74         4.4034
   368.88         4.5486
   369.02         4.7461
   369.16         4.9808
   369.30         5.2282
   369.44         5.4595
   369.58         5.6406
   369.72         5.7404
   369.86         5.7394
   370.00         5.6318
   370.14         5.4285
   370.28         5.1560
   370.42         4.8480
   370.56         4.5422
   370.70         4.2732
   370.84         4.0617
   370.98         3.9143
   371.12         3.8281
   371.26         3.7903
   371.40         3.7819
   371.54         3.7875
   371.68         3.7949
   371.82         3.7930
   371.96         3.7782
   372.10         3.7539
   372.24         3.7253
   372.38         3.7012
   372.52         3.6947
   372.66         3.7185
   372.80         3.7720
   372.94         3.8380
   373.08         3.8933
   373.22         3.9236
   373.36         3.9220
   373.50         3.8806
   373.64         3.7921
   373.78         3.6602
   373.92         3.5002
   374.06         3.3303
   374.20         3.1665
   374.34         3.0245
   374.48         2.9222
   374.62         2.8737
   374.76         2.8800
   374.90         2.9342
   375.04         3.0313
   375.18         3.1675
   375.32         3.3319
   375.46         3.5092
   375.60         3.6897
   375.74         3.8715
   375.88         4.0519
   376.02         4.2206
   376.16         4.3679
   376.30         4.4915
   376.44         4.5933
   376.58         4.6717
   376.72         4.7277
   376.86         4.7716
   377.00         4.8180
   377.14         4.8741
   377.28         4.9347
   377.42         4.9893
   377.56         5.0337
   377.70         5.0704
   377.84         5.0990
   377.98         5.1134
   378.12         5.1118
   378.26         5.0991
   378.40         5.0793
   378.54         5.0475
   378.68         4.9934
   378.82         4.9088
   378.96         4.7900
   379.10         4.6401
   379.24         4.4716
   379.38         4.2984
   379.52         4.1298
   379.66         3.9744
   379.80         3.8411
   379.94         3.7378
   380.08         3.6720
   380.22         3.6487
   380.36         3.6675
   380.50         3.7174
   380.64         3.7808
   380.78         3.8434
   380.92         3.8957
   381.06         3.9270
   381.20         3.9241
   381.34         3.8767
   381.48         3.7849
   381.62         3.6617
   381.76         3.5308
   381.90         3.4180
   382.04         3.3413
   382.18         3.3126
   382.32         3.3384
   382.46         3.4131
   382.60         3.5226
   382.74         3.6535
   382.88         3.7968
   383.02         3.9454
   383.16         4.0916
   383.30         4.2267
   383.44         4.3435
   383.58         4.4401
   383.72         4.5186
   383.86         4.5790
   384.00         4.6215
   384.14         4.6538
   384.28         4.6861
   384.42         4.7193
   384.56         4.7444
   384.70         4.7494
   384.84         4.7270
   384.98         4.6783
   385.12         4.6105
   385.26         4.5350
   385.40         4.4623
   385.54         4.3982
   385.68         4.3449
   385.82         4.3043
   385.96         4.2755
   386.10         4.2588
   386.24         4.2594
   386.38         4.2792
   386.52         4.3137
   386.66         4.3571
   386.80         4.4027
   386.94         4.4394
   387.08         4.4584
   387.22         4.4598
   387.36         4.4494
   387.50         4.4323
   387.64         4.4127
   387.78         4.3943
   387.92         4.3820
   388.06         4.3796
   388.20         4.3857
   388.34         4.3942
   388.48         4.4024
   388.62         4.4131
   388.76         4.4342
   388.90         4.4750
   389.04         4.5413
   389.18         4.6315
   389.32         4.7385
   389.46         4.8586
   389.60         4.9952
   389.74         5.1503
   389.88         5.3155
   390.02         5.4756
   390.16         5.6171
   390.30         5.7309
   390.44         5.8105
   390.58         5.8492
   390.72         5.8384
   390.86         5.7712
   391.00         5.6511
   391.14         5.4936
   391.28         5.3165
   391.42         5.1326
   391.56         4.9495
   391.70         4.7666
   391.84         4.5772
   391.98         4.3785
   392.12         4.1726
   392.26         3.9607
   392.40         3.7408
   392.54         3.5156
   392.68         3.2979
   392.82         3.1053
   392.96         2.9503
   393.10         2.8399
   393.24         2.7810
   393.38         2.7808
   393.52         2.8451
   393.66         2.9754
   393.80         3.1665
   393.94         3.4094
   394.08         3.6983
   394.22         4.0315
   394.36         4.4057
   394.50         4.8121
   394.64         5.2346
   394.78         5.6483
   394.92         6.0233
   395.06         6.3281
   395.20         6.5343
   395.34         6.6220
   395.48         6.5819
   395.62         6.4153
   395.76         6.1358
   395.90         5.7693
   396.04         5.3501
   396.18         4.9155
   396.32         4.5050
   396.46         4.1615
   396.60         3.9267
   396.74         3.8269
   396.88         3.8618
   397.02         4.0113
   397.16         4.2495
   397.30         4.5526
   397.44         4.8989
   397.58         5.2680
   397.72         5.6415
   397.86         6.0071
   398.00         6.3590
   398.14         6.6921
   398.28         6.9998
   398.42         7.2773
   398.56         7.5267
   398.70         7.7587
   398.84         7.9860
   398.98         8.2184
   399.12         8.4607
   399.26         8.7113
   399.40         8.9647
   399.54         9.2180
   399.68         9.4718
   399.82         9.7274
   399.96         9.9804
   400.10         10.2214
   400.24         10.4438
   400.38         10.6486
   400.52         10.8423
   400.66         11.0310
   400.80         11.2167
   400.94         11.3974
   401.08         11.5705
   401.22         11.7368
   401.36         11.8990
   401.50         12.0582
   401.64         12.2131
   401.78         12.3576
   401.92         12.4789
   402.06         12.5602
   402.20         12.5889
   402.34         12.5618
   402.48         12.4888
   402.62         12.3874
   402.76         12.2768
   402.90         12.1740
   403.04         12.0879
   403.18         12.0143
   403.32         11.9402
   403.46         11.8512
   403.60         11.7442
   403.74         11.6337
   403.88         11.5410
   404.02         11.4821
   404.16         11.4588
   404.30         11.4581
   404.44         11.4626
   404.58         11.4598
   404.72         11.4468
   404.86         11.4269
   405.00         11.4016
   405.14         11.3656
   405.28         11.3075
   405.42         11.2169
   405.56         11.0925
   405.70         10.9445
   405.84         10.7913
   405.98         10.6560
   406.12         10.5612
   406.26         10.5254
   406.40         10.5510
   406.54         10.6183
   406.68         10.6977
   406.82         10.7641
   406.96         10.8065
   407.10         10.8257
   407.24         10.8301
   407.38         10.8352
   407.52         10.8627
   407.66         10.9373
   407.80         11.0822
   407.94         11.3128
   408.08         11.6321
   408.22         12.0287
   408.36         12.4764
   408.50         12.9386
   408.64         13.3754
   408.78         13.7493
   408.92         14.0290
   409.06         14.1961
   409.20         14.2523
   409.34         14.2191
   409.48         14.1300
   409.62         14.0200
   409.76         13.9171
   409.90         13.8423
   410.04         13.8096
   410.18         13.8218
   410.32         13.8694
   410.46         13.9337
   410.60         13.9934
   410.74         14.0288
   410.88         14.0225
   411.02         13.9631
   411.16         13.8515
   411.30         13.7005
   411.44         13.5280
   411.58         13.3541
   411.72         13.1981
   411.86         13.0731
   412.00         12.9813
   412.14         12.9138
   412.28         12.8557
   412.42         12.7944
   412.56         12.7250
   412.70         12.6489
   412.84         12.5688
   412.98         12.4866
   413.12         12.4025
   413.26         12.3159
   413.40         12.2279
   413.54         12.1438
   413.68         12.0716
   413.82         12.0178
   413.96         11.9815
   414.10         11.9535
   414.24         11.9248
   414.38         11.8922
   414.52         11.8620
   414.66         11.8482
   414.80         11.8661
   414.94         11.9281
   415.08         12.0414
   415.22         12.2046
   415.36         12.4048
   415.50         12.6198
   415.64         12.8240
   415.78         12.9952
   415.92         13.1176
   416.06         13.1798
   416.20         13.1725
   416.34         13.0894
   416.48         12.9324
   416.62         12.7137
   416.76         12.4576
   416.90         12.1978
   417.04         11.9701
   417.18         11.8071
   417.32         11.7311
   417.46         11.7507
   417.60         11.8620
   417.74         12.0536
   417.88         12.3060
   418.02         12.5946
   418.16         12.8940
   418.30         13.1792
   418.44         13.4255
   418.58         13.6120
   418.72         13.7237
   418.86         13.7521
   419.00         13.6969
   419.14         13.5690
   419.28         13.3882
   419.42         13.1796
   419.56         12.9729
   419.70         12.8015
   419.84         12.6969
   419.98         12.6804
   420.12         12.7581
   420.26         12.9219
   420.40         13.1540
   420.54         13.4353
   420.68         13.7545
   420.82         14.1033
   420.96         14.4687
   421.10         14.8324
   421.24         15.1680
   421.38         15.4377
   421.52         15.6026
   421.66         15.6387
   421.80         15.5446
   421.94         15.3388
   422.08         15.0501
   422.22         14.7117
   422.36         14.3556
   422.50         14.0090
   422.64         13.6968
   422.78         13.4457
   422.92         13.2874
   423.06         13.2622
   423.20         13.4112
   423.34         13.7531
   423.48         14.2687
   423.62         14.9053
   423.76         15.5937
   423.90         16.2622
   424.04         16.8505
   424.18         17.3199
   424.32         17.6519
   424.46         17.8422
   424.60         17.8927
   424.74         17.8069
   424.88         17.5996
   425.02         17.3075
   425.16         16.9872
   425.30         16.7051
   425.44         16.5239
   425.58         16.4884
   425.72         16.6109
   425.86         16.8645
   426.00         17.1919
   426.14         17.5255
   426.28         17.8078
   426.42         18.0047
   426.56         18.1078
   426.70         18.1250
   426.84         18.0729
   426.98         17.9741
   427.12         17.8573
   427.26         17.7514
   427.40         17.6786
   427.54         17.6505
   427.68         17.6632
   427.82         17.6951
   427.96         17.7137
   428.10         17.6894
   428.24         17.6006
   428.38         17.4373
   428.52         17.2055
   428.66         16.9237
   428.80         16.6148
   428.94         16.3045
   429.08         16.0194
   429.22         15.7785
   429.36         15.5834
   429.50         15.4230
   429.64         15.2855
   429.78         15.1645
   429.92         15.0596
   430.06         14.9769
   430.20         14.9318
   430.34         14.9581
   430.48         15.1085
   430.62         15.4406
   430.76         15.9916
   430.90         16.7611
   431.04         17.7123
   431.18         18.7809
   431.32         19.8850
   431.46         20.9446
   431.60         21.9025
   431.74         22.7265
   431.88         23.4018
   432.02         23.9307
   432.16         24.3385
   432.30         24.6686
   432.44         24.9592
   432.58         25.2266
   432.72         25.4638
   432.86         25.6523
   433.00         25.7794
   433.14         25.8397
   433.28         25.8262
   433.42         25.7299
   433.56         25.5510
   433.70         25.3068
   433.84         25.0267
   433.98         24.7459
   434.12         24.5118
   434.26         24.3826
   434.40         24.4046
   434.54         24.5987
   434.68         24.9563
   434.82         25.4438
   434.96         26.0143
   435.10         26.6200
   435.24         27.2306
   435.38         27.8369
   435.52         28.4379
   435.66         29.0302
   435.80         29.5989
   435.94         30.1152
   436.08         30.5385
   436.22         30.8256
   436.36         30.9444
   436.50         30.8838
   436.64         30.6617
   436.78         30.3183
   436.92         29.8886
   437.06         29.3835
   437.20         28.7973
   437.34         28.1305
   437.48         27.4061
   437.62         26.6636
   437.76         25.9408
   437.90         25.2666
   438.04         24.6609
   438.18         24.1404
   438.32         23.7271
   438.46         23.4501
   438.60         23.3342
   438.74         23.3884
   438.88         23.6095
   439.02         23.9846
   439.16         24.4787
   439.30         25.0235
   439.44         25.5284
   439.58         25.9105
   439.72         26.1264
   439.86         26.1858
   440.00         26.1363
   440.14         26.0327
   440.28         25.9167
   440.42         25.8153
   440.56         25.7513
   440.70         25.7457
   440.84         25.8108
   440.98         25.9462
   441.12         26.1393
   441.26         26.3673
   441.40         26.6020
   441.54         26.8139
   441.68         26.9756
   441.82         27.0663
   441.96         27.0820
   442.10         27.0406
   442.24         26.9665
   442.38         26.8803
   442.52         26.8003
   442.66         26.7387
   442.80         26.6985
   442.94         26.6782
   443.08         26.6791
   443.22         26.7122
   443.36         26.7966
   443.50         26.9544
   443.64         27.2030
   443.78         27.5521
   443.92         27.9973
   444.06         28.5132
   444.20         29.0537
   444.34         29.5648
   444.48         29.9961
   444.62         30.3010
   444.76         30.4371
   444.90         30.3779
   445.04         30.1281
   445.18         29.7222
   445.32         29.2070
   445.46         28.6298
   445.60         28.0406
   445.74         27.4979
   445.88         27.0660
   446.02         26.8066
   446.16         26.7665
   446.30         26.9724
   446.44         27.4326
   446.58         28.1335
   446.72         29.0330
   446.86         30.0632
   447.00         31.1499
   447.14         32.2315
   447.28         33.2697
   447.42         34.2484
   447.56         35.1569
   447.70         35.9763
   447.84         36.6836
   447.98         37.2578
   448.12         37.6782
   448.26         37.9278
   448.40         38.0037
   448.54         37.9297
   448.68         37.7574
   448.82         37.5499
   448.96         37.3703
   449.10         37.2789
   449.24         37.3238
   449.38         37.5326
   449.52         37.9201
   449.66         38.4948
   449.80         39.2502
   449.94         40.1491
   450.08         41.1163
   450.22         42.0527
   450.36         42.8682
   450.50         43.5016
   450.64         43.9185
   450.78         44.1097
   450.92         44.0914
   451.06         43.8990
   451.20         43.5777
   451.34         43.1686
   451.48         42.6939
   451.62         42.1589
   451.76         41.5595
   451.90         40.8857
   452.04         40.1302
   452.18         39.2973
   452.32         38.4068
   452.46         37.4989
   452.60         36.6340
   452.74         35.8774
   452.88         35.2868
   453.02         34.9115
   453.16         34.7860
   453.30         34.9185
   453.44         35.2885
   453.58         35.8478
   453.72         36.5284
   453.86         37.2588
   454.00         37.9658
   454.14         38.5745
   454.28         39.0293
   454.42         39.3157
   454.56         39.4612
   454.70         39.5171
   454.84         39.5373
   454.98         39.5689
   455.12         39.6460
   455.26         39.7844
   455.40         39.9853
   455.54         40.2546
   455.68         40.6060
   455.82         41.0388
   455.96         41.5301
   456.10         42.0535
   456.24         42.5867
   456.38         43.1051
   456.52         43.5787
   456.66         43.9731
   456.80         44.2627
   456.94         44.4453
   457.08         44.5355
   457.22         44.5470
   457.36         44.4869
   457.50         44.3680
   457.64         44.2182
   457.78         44.0755
   457.92         43.9774
   458.06         43.9472
   458.20         43.9882
   458.34         44.0868
   458.48         44.2211
   458.62         44.3737
   458.76         44.5317
