# File SAO37325
# Wavelength [nm]    Normalized Amplitude
   349.70         2.8029
   349.84         2.7586
   349.98         2.7442
   350.12         2.7539
   350.26         2.7816
   350.40         2.8214
   350.54         2.8671
   350.68         2.9124
   350.82         2.9509
   350.96         2.9768
   351.10         2.9860
   351.24         2.9768
   351.38         2.9509
   351.52         2.9124
   351.66         2.8671
   351.80         2.8214
   351.94         2.7816
   352.08         2.7539
   352.22         2.7442
   352.36         2.7586
   352.50         2.8029
   352.64         2.8796
   352.78         2.9867
   352.92         3.1178
   353.06         3.2617
   353.20         3.4055
   353.34         3.5374
   353.48         3.6473
   353.62         3.7269
   353.76         3.7711
   353.90         3.7789
   354.04         3.7532
   354.18         3.6997
   354.32         3.6262
   354.46         3.5412
   354.60         3.4516
   354.74         3.3626
   354.88         3.2778
   355.02         3.1995
   355.16         3.1278
   355.30         3.0600
   355.44         2.9916
   355.58         2.9185
   355.72         2.8384
   355.86         2.7504
   356.00         2.6535
   356.14         2.5478
   356.28         2.4356
   356.42         2.3221
   356.56         2.2135
   356.70         2.1148
   356.84         2.0285
   356.98         1.9554
   357.12         1.8941
   357.26         1.8414
   357.40         1.7943
   357.54         1.7506
   357.68         1.7088
   357.82         1.6678
   357.96         1.6291
   358.10         1.5965
   358.24         1.5750
   358.38         1.5702
   358.52         1.5877
   358.66         1.6338
   358.80         1.7140
   358.94         1.8313
   359.08         1.9833
   359.22         2.1621
   359.36         2.3559
   359.50         2.5516
   359.64         2.7365
   359.78         2.8991
   359.92         3.0300
   360.06         3.1226
   360.20         3.1746
   360.34         3.1893
   360.48         3.1756
   360.62         3.1453
   360.76         3.1096
   360.90         3.0766
   361.04         3.0538
   361.18         3.0490
   361.32         3.0694
   361.46         3.1195
   361.60         3.2019
   361.74         3.3170
   361.88         3.4612
   362.02         3.6262
   362.16         3.8003
   362.30         3.9704
   362.44         4.1245
   362.58         4.2540
   362.72         4.3562
   362.86         4.4337
   363.00         4.4917
   363.14         4.5352
   363.28         4.5672
   363.42         4.5883
   363.56         4.5986
   363.70         4.5988
   363.84         4.5900
   363.98         4.5735
   364.12         4.5515
   364.26         4.5264
   364.40         4.5002
   364.54         4.4743
   364.68         4.4542
   364.82         4.4517
   364.96         4.4813
   365.10         4.5560
   365.24         4.6830
   365.38         4.8623
   365.52         5.0853
   365.66         5.3361
   365.80         5.5943
   365.94         5.8378
   366.08         6.0465
   366.22         6.2068
   366.36         6.3134
   366.50         6.3696
   366.64         6.3829
   366.78         6.3610
   366.92         6.3102
   367.06         6.2361
   367.20         6.1458
   367.34         6.0474
   367.48         5.9456
   367.62         5.8401
   367.76         5.7284
   367.90         5.6112
   368.04         5.4943
   368.18         5.3884
   368.32         5.3039
   368.46         5.2480
   368.60         5.2251
   368.74         5.2384
   368.88         5.2905
   369.02         5.3801
   369.16         5.5000
   369.30         5.6361
   369.44         5.7688
   369.58         5.8781
   369.72         5.9470
   369.86         5.9638
   370.00         5.9232
   370.14         5.8282
   370.28         5.6924
   370.42         5.5372
   370.56         5.3848
   370.70         5.2502
   370.84         5.1373
   370.98         5.0402
   371.12         4.9493
   371.26         4.8581
   371.40         4.7634
   371.54         4.6634
   371.68         4.5554
   371.82         4.4353
   371.96         4.2999
   372.10         4.1491
   372.24         3.9862
   372.38         3.8171
   372.52         3.6488
   372.66         3.4886
   372.80         3.3434
   372.94         3.2170
   373.08         3.1078
   373.22         3.0092
   373.36         2.9144
   373.50         2.8194
   373.64         2.7255
   373.78         2.6376
   373.92         2.5616
   374.06         2.5024
   374.20         2.4637
   374.34         2.4491
   374.48         2.4598
   374.62         2.4941
   374.76         2.5461
   374.90         2.6092
   375.04         2.6782
   375.18         2.7504
   375.32         2.8242
   375.46         2.8980
   375.60         2.9690
   375.74         3.0336
   375.88         3.0919
   376.02         3.1495
   376.16         3.2150
   376.30         3.2981
   376.44         3.4066
   376.58         3.5460
   376.72         3.7191
   376.86         3.9261
   377.00         4.1612
   377.14         4.4128
   377.28         4.6646
   377.42         4.8986
   377.56         5.0974
   377.70         5.2454
   377.84         5.3310
   377.98         5.3486
   378.12         5.2991
   378.26         5.1886
   378.40         5.0272
   378.54         4.8275
   378.68         4.6028
   378.82         4.3659
   378.96         4.1305
   379.10         3.9121
   379.24         3.7262
   379.38         3.5855
   379.52         3.4972
   379.66         3.4607
   379.80         3.4697
   379.94         3.5129
   380.08         3.5769
   380.22         3.6485
   380.36         3.7155
   380.50         3.7669
   380.64         3.7930
   380.78         3.7852
   380.92         3.7379
   381.06         3.6499
   381.20         3.5245
   381.34         3.3685
   381.48         3.1912
   381.62         3.0044
   381.76         2.8200
   381.90         2.6483
   382.04         2.4968
   382.18         2.3699
   382.32         2.2708
   382.46         2.2000
   382.60         2.1563
   382.74         2.1357
   382.88         2.1323
   383.02         2.1406
   383.16         2.1575
   383.30         2.1821
   383.44         2.2141
   383.58         2.2534
   383.72         2.2990
   383.86         2.3489
   384.00         2.4011
   384.14         2.4545
   384.28         2.5078
   384.42         2.5580
   384.56         2.6012
   384.70         2.6330
   384.84         2.6502
   384.98         2.6522
   385.12         2.6410
   385.26         2.6201
   385.40         2.5932
   385.54         2.5640
   385.68         2.5367
   385.82         2.5145
   385.96         2.4989
   386.10         2.4900
   386.24         2.4883
   386.38         2.4946
   386.52         2.5084
   386.66         2.5281
   386.80         2.5509
   386.94         2.5742
   387.08         2.5984
   387.22         2.6265
   387.36         2.6623
   387.50         2.7089
   387.64         2.7689
   387.78         2.8458
   387.92         2.9442
   388.06         3.0677
   388.20         3.2182
   388.34         3.3938
   388.48         3.5894
   388.62         3.7971
   388.76         4.0082
   388.90         4.2136
   389.04         4.4047
   389.18         4.5737
   389.32         4.7143
   389.46         4.8241
   389.60         4.9056
   389.74         4.9655
   389.88         5.0116
   390.02         5.0505
   390.16         5.0883
   390.30         5.1311
   390.44         5.1832
   390.58         5.2434
   390.72         5.3038
   390.86         5.3524
   391.00         5.3772
   391.14         5.3688
   391.28         5.3220
   391.42         5.2346
   391.56         5.1064
   391.70         4.9378
   391.84         4.7301
   391.98         4.4866
   392.12         4.2135
   392.26         3.9195
   392.40         3.6146
   392.54         3.3098
   392.68         3.0167
   392.82         2.7485
   392.96         2.5185
   393.10         2.3382
   393.24         2.2156
   393.38         2.1569
   393.52         2.1664
   393.66         2.2459
   393.80         2.3936
   393.94         2.6043
   394.08         2.8681
   394.22         3.1717
   394.36         3.5003
   394.50         3.8383
   394.64         4.1698
   394.78         4.4786
   394.92         4.7483
   395.06         4.9637
   395.20         5.1109
   395.34         5.1793
   395.48         5.1616
   395.62         5.0557
   395.76         4.8658
   395.90         4.6043
   396.04         4.2913
   396.18         3.9537
   396.32         3.6226
   396.46         3.3314
   396.60         3.1122
   396.74         2.9923
   396.88         2.9908
   397.02         3.1164
   397.16         3.3651
   397.30         3.7231
   397.44         4.1706
   397.58         4.6837
   397.72         5.2367
   397.86         5.8035
   398.00         6.3596
   398.14         6.8841
   398.28         7.3617
   398.42         7.7830
   398.56         8.1454
   398.70         8.4537
   398.84         8.7194
   398.98         8.9576
   399.12         9.1818
   399.26         9.4000
   399.40         9.6129
   399.54         9.8174
   399.68         10.0109
   399.82         10.1944
   399.96         10.3708
   400.10         10.5434
   400.24         10.7147
   400.38         10.8858
   400.52         11.0570
   400.66         11.2286
   400.80         11.4000
   400.94         11.5691
   401.08         11.7316
   401.22         11.8809
   401.36         12.0110
   401.50         12.1175
   401.64         12.1973
   401.78         12.2462
   401.92         12.2561
   402.06         12.2186
   402.20         12.1288
   402.34         11.9889
   402.48         11.8091
   402.62         11.6060
   402.76         11.3996
   402.90         11.2100
   403.04         11.0529
   403.18         10.9355
   403.32         10.8547
   403.46         10.7996
   403.60         10.7577
   403.74         10.7218
   403.88         10.6923
   404.02         10.6748
   404.16         10.6751
   404.30         10.6923
   404.44         10.7190
   404.58         10.7458
   404.72         10.7687
   404.86         10.7917
   405.00         10.8221
   405.14         10.8620
   405.28         10.9043
   405.42         10.9356
   405.56         10.9432
   405.70         10.9185
   405.84         10.8587
   405.98         10.7679
   406.12         10.6591
   406.26         10.5513
   406.40         10.4620
   406.54         10.3991
   406.68         10.3614
   406.82         10.3453
   406.96         10.3502
   407.10         10.3799
   407.24         10.4402
   407.38         10.5372
   407.52         10.6765
   407.66         10.8616
   407.80         11.0934
   407.94         11.3704
   408.08         11.6865
   408.22         12.0284
   408.36         12.3747
   408.50         12.6969
   408.64         12.9646
   408.78         13.1509
   408.92         13.2355
   409.06         13.2064
   409.20         13.0652
   409.34         12.8302
   409.48         12.5328
   409.62         12.2079
   409.76         11.8865
   409.90         11.5922
   410.04         11.3422
   410.18         11.1470
   410.32         11.0105
   410.46         10.9292
   410.60         10.8919
   410.74         10.8826
   410.88         10.8838
   411.02         10.8794
   411.16         10.8573
   411.30         10.8124
   411.44         10.7473
   411.58         10.6700
   411.72         10.5901
   411.86         10.5161
   412.00         10.4519
   412.14         10.3954
   412.28         10.3406
   412.42         10.2824
   412.56         10.2186
   412.70         10.1511
   412.84         10.0829
   412.98         10.0146
   413.12         9.9415
   413.26         9.8550
   413.40         9.7484
   413.54         9.6215
   413.68         9.4789
   413.82         9.3262
   413.96         9.1692
   414.10         9.0126
   414.24         8.8595
   414.38         8.7118
   414.52         8.5737
   414.66         8.4536
   414.80         8.3633
   414.94         8.3142
   415.08         8.3135
   415.22         8.3609
   415.36         8.4484
   415.50         8.5625
   415.64         8.6874
   415.78         8.8106
   415.92         8.9244
   416.06         9.0233
   416.20         9.1004
   416.34         9.1477
   416.48         9.1597
   416.62         9.1357
   416.76         9.0807
   416.90         9.0038
   417.04         8.9181
   417.18         8.8396
   417.32         8.7850
   417.46         8.7668
   417.60         8.7903
   417.74         8.8540
   417.88         8.9523
   418.02         9.0773
   418.16         9.2210
   418.30         9.3753
   418.44         9.5297
   418.58         9.6707
   418.72         9.7849
   418.86         9.8630
   419.00         9.9023
   419.14         9.9045
   419.28         9.8757
   419.42         9.8267
   419.56         9.7725
   419.70         9.7300
   419.84         9.7145
   419.98         9.7369
   420.12         9.7999
   420.26         9.8984
   420.40         10.0260
   420.54         10.1813
   420.68         10.3692
   420.82         10.5983
   420.96         10.8723
   421.10         11.1846
   421.24         11.5162
   421.38         11.8364
   421.52         12.1078
   421.66         12.2982
   421.80         12.3919
   421.94         12.3927
   422.08         12.3198
   422.22         12.1983
   422.36         12.0547
   422.50         11.9148
   422.64         11.8028
   422.78         11.7416
   422.92         11.7530
   423.06         11.8586
   423.20         12.0750
   423.34         12.4075
   423.48         12.8417
   423.62         13.3408
   423.76         13.8535
   423.90         14.3258
   424.04         14.7142
   424.18         14.9942
   424.32         15.1608
   424.46         15.2221
   424.60         15.1917
   424.74         15.0821
   424.88         14.9051
   425.02         14.6791
   425.16         14.4337
   425.30         14.2082
   425.44         14.0433
   425.58         13.9709
   425.72         14.0046
   425.86         14.1345
   426.00         14.3267
   426.14         14.5310
   426.28         14.6950
   426.42         14.7816
   426.56         14.7772
   426.70         14.6901
   426.84         14.5425
   426.98         14.3633
   427.12         14.1841
   427.26         14.0337
   427.40         13.9339
   427.54         13.8979
   427.68         13.9295
   427.82         14.0197
   427.96         14.1465
   428.10         14.2809
   428.24         14.3936
   428.38         14.4597
   428.52         14.4631
   428.66         14.3987
   428.80         14.2711
   428.94         14.0922
   429.08         13.8772
   429.22         13.6386
   429.36         13.3818
   429.50         13.1053
   429.64         12.8058
   429.78         12.4840
   429.92         12.1485
   430.06         11.8178
   430.20         11.5203
   430.34         11.2964
   430.48         11.1983
   430.62         11.2808
   430.76         11.5840
   430.90         12.1182
   431.04         12.8580
   431.18         13.7463
   431.32         14.7036
   431.46         15.6454
   431.60         16.5023
   431.74         17.2301
   431.88         17.8065
   432.02         18.2284
   432.16         18.5124
   432.30         18.6944
   432.44         18.8207
   432.58         18.9331
   432.72         19.0583
   432.86         19.2087
   433.00         19.3859
   433.14         19.5831
   433.28         19.7840
   433.42         19.9653
   433.56         20.1070
   433.70         20.1998
   433.84         20.2461
   433.98         20.2565
   434.12         20.2492
   434.26         20.2465
   434.40         20.2674
   434.54         20.3193
   434.68         20.3988
   434.82         20.4955
   434.96         20.5950
   435.10         20.6830
   435.24         20.7514
   435.38         20.8055
   435.52         20.8608
   435.66         20.9332
   435.80         21.0314
   435.94         21.1543
   436.08         21.2892
   436.22         21.4135
   436.36         21.4993
   436.50         21.5219
   436.64         21.4693
   436.78         21.3453
   436.92         21.1600
   437.06         20.9176
   437.20         20.6113
   437.34         20.2340
   437.48         19.7933
   437.62         19.3119
   437.76         18.8189
   437.90         18.3427
   438.04         17.9081
   438.18         17.5368
   438.32         17.2507
   438.46         17.0739
   438.60         17.0280
   438.74         17.1224
   438.88         17.3513
   439.02         17.6980
   439.16         18.1311
   439.30         18.5989
   439.44         19.0345
   439.58         19.3737
   439.72         19.5770
   439.86         19.6410
   440.00         19.5958
   440.14         19.4865
   440.28         19.3522
   440.42         19.2216
   440.56         19.1209
   440.70         19.0788
   440.84         19.1203
   440.98         19.2576
   441.12         19.4854
   441.26         19.7830
   441.40         20.1211
   441.54         20.4692
   441.68         20.7986
   441.82         21.0837
   441.96         21.3079
   442.10         21.4702
   442.24         21.5794
   442.38         21.6466
   442.52         21.6832
   442.66         21.7001
   442.80         21.7072
   442.94         21.7106
   443.08         21.7164
   443.22         21.7360
   443.36         21.7834
   443.50         21.8703
   443.64         22.0033
   443.78         22.1853
   443.92         22.4157
   444.06         22.6862
   444.20         22.9761
   444.34         23.2542
   444.48         23.4864
   444.62         23.6416
   444.76         23.6944
   444.90         23.6275
   445.04         23.4389
   445.18         23.1471
   445.32         22.7842
   445.46         22.3850
   445.60         21.9837
   445.74         21.6172
   445.88         21.3247
   446.02         21.1410
   446.16         21.0903
   446.30         21.1836
   446.44         21.4198
   446.58         21.7865
   446.72         22.2578
   446.86         22.7938
   447.00         23.3484
   447.14         23.8807
   447.28         24.3642
   447.42         24.7867
   447.56         25.1430
   447.70         25.4304
   447.84         25.6455
   447.98         25.7853
   448.12         25.8472
   448.26         25.8283
   448.40         25.7308
   448.54         25.5675
   448.68         25.3640
   448.82         25.1526
   448.96         24.9647
   449.10         24.8276
   449.24         24.7661
   449.38         24.7991
   449.52         24.9378
   449.66         25.1890
   449.80         25.5540
   449.94         26.0210
   450.08         26.5555
   450.22         27.1036
   450.36         27.6088
   450.50         28.0263
   450.64         28.3284
   450.78         28.5035
   450.92         28.5558
   451.06         28.5044
   451.20         28.3759
   451.34         28.1938
   451.48         27.9698
   451.62         27.7054
   451.76         27.3986
   451.90         27.0476
   452.04         26.6515
   452.18         26.2123
   452.32         25.7391
   452.46         25.2508
   452.60         24.7746
   452.74         24.3393
   452.88         23.9735
   453.02         23.7058
   453.16         23.5605
   453.30         23.5502
   453.44         23.6721
   453.58         23.9056
   453.72         24.2151
   453.86         24.5576
   454.00         24.8913
   454.14         25.1818
   454.28         25.4088
   454.42         25.5718
   454.56         25.6886
   454.70         25.7868
   454.84         25.8936
   454.98         26.0314
   455.12         26.2143
   455.26         26.4429
   455.40         26.7056
   455.54         26.9898
   455.68         27.2857
   455.82         27.5802
   455.96         27.8541
   456.10         28.0886
   456.24         28.2721
   456.38         28.3987
   456.52         28.4677
   456.66         28.4829
   456.80         28.4507
   456.94         28.3831
   457.08         28.2979
   457.22         28.2114
   457.36         28.1312
   457.50         28.0591
   457.64         28.0004
   457.78         27.9653
   457.92         27.9639
   458.06         28.0016
   458.20         28.0743
   458.34         28.1682
   458.48         28.2645
   458.62         28.3469
   458.76         28.4053
   458.90         28.4328
   459.04         28.4229
