# File SAO37370
# Wavelength [nm]    Normalized Amplitude
   349.70         19.0551
   349.84         19.1429
   349.98         19.2270
   350.12         19.3046
   350.26         19.3725
   350.40         19.4267
   350.54         19.4659
   350.68         19.4925
   350.82         19.5100
   350.96         19.5200
   351.10         19.5232
   351.24         19.5200
   351.38         19.5100
   351.52         19.4925
   351.66         19.4659
   351.80         19.4267
   351.94         19.3725
   352.08         19.3046
   352.22         19.2270
   352.36         19.1429
   352.50         19.0551
   352.64         18.9689
   352.78         18.8929
   352.92         18.8370
   353.06         18.8115
   353.20         18.8250
   353.34         18.8812
   353.48         18.9752
   353.62         19.0971
   353.76         19.2362
   353.90         19.3841
   354.04         19.5331
   354.18         19.6737
   354.32         19.7936
   354.46         19.8801
   354.60         19.9246
   354.74         19.9235
   354.88         19.8778
   355.02         19.7940
   355.16         19.6837
   355.30         19.5575
   355.44         19.4204
   355.58         19.2720
   355.72         19.1101
   355.86         18.9336
   356.00         18.7416
   356.14         18.5358
   356.28         18.3216
   356.42         18.1065
   356.56         17.8974
   356.70         17.7003
   356.84         17.5208
   356.98         17.3636
   357.12         17.2318
   357.26         17.1257
   357.40         17.0406
   357.54         16.9670
   357.68         16.8938
   357.82         16.8117
   357.96         16.7162
   358.10         16.6117
   358.24         16.5113
   358.38         16.4322
   358.52         16.3903
   358.66         16.3978
   358.80         16.4620
   358.94         16.5840
   359.08         16.7583
   359.22         16.9732
   359.36         17.2126
   359.50         17.4568
   359.64         17.6861
   359.78         17.8845
   359.92         18.0403
   360.06         18.1453
   360.20         18.1970
   360.34         18.2000
   360.48         18.1641
   360.62         18.1003
   360.76         18.0171
   360.90         17.9208
   361.04         17.8171
   361.18         17.7120
   361.32         17.6131
   361.46         17.5286
   361.60         17.4687
   361.74         17.4437
   361.88         17.4597
   362.02         17.5147
   362.16         17.5995
   362.30         17.7020
   362.44         17.8096
   362.58         17.9098
   362.72         17.9930
   362.86         18.0550
   363.00         18.0949
   363.14         18.1141
   363.28         18.1153
   363.42         18.1021
   363.56         18.0788
   363.70         18.0493
   363.84         18.0169
   363.98         17.9853
   364.12         17.9596
   364.26         17.9440
   364.40         17.9402
   364.54         17.9473
   364.68         17.9661
   364.82         18.0019
   364.96         18.0605
   365.10         18.1442
   365.24         18.2516
   365.38         18.3762
   365.52         18.5087
   365.66         18.6383
   365.80         18.7542
   365.94         18.8469
   366.08         18.9107
   366.22         18.9454
   366.36         18.9547
   366.50         18.9452
   366.64         18.9264
   366.78         18.9064
   366.92         18.8907
   367.06         18.8818
   367.20         18.8794
   367.34         18.8805
   367.48         18.8790
   367.62         18.8662
   367.76         18.8376
   367.90         18.7950
   368.04         18.7453
   368.18         18.6992
   368.32         18.6675
   368.46         18.6588
   368.60         18.6810
   368.74         18.7411
   368.88         18.8430
   369.02         18.9857
   369.16         19.1619
   369.30         19.3553
   369.44         19.5424
   369.58         19.6974
   369.72         19.7997
   369.86         19.8358
   370.00         19.7993
   370.14         19.6918
   370.28         19.5278
   370.42         19.3362
   370.56         19.1549
   370.70         19.0185
   370.84         18.9463
   370.98         18.9388
   371.12         18.9854
   371.26         19.0729
   371.40         19.1906
   371.54         19.3290
   371.68         19.4781
   371.82         19.6278
   371.96         19.7691
   372.10         19.8928
   372.24         19.9884
   372.38         20.0449
   372.52         20.0543
   372.66         20.0173
   372.80         19.9485
   372.94         19.8728
   373.08         19.8162
   373.22         19.7960
   373.36         19.8149
   373.50         19.8637
   373.64         19.9281
   373.78         19.9927
   373.92         20.0400
   374.06         20.0549
   374.20         20.0302
   374.34         19.9693
   374.48         19.8818
   374.62         19.7792
   374.76         19.6744
   374.90         19.5876
   375.04         19.5483
   375.18         19.5900
   375.32         19.7394
   375.46         20.0039
   375.60         20.3631
   375.74         20.7693
   375.88         21.1570
   376.02         21.4608
   376.16         21.6328
   376.30         21.6553
   376.44         21.5443
   376.58         21.3501
   376.72         21.1468
   376.86         21.0129
   377.00         21.0139
   377.14         21.1917
   377.28         21.5611
   377.42         22.1115
   377.56         22.8120
   377.70         23.6148
   377.84         24.4561
   377.98         25.2604
   378.12         25.9480
   378.26         26.4439
   378.40         26.6900
   378.54         26.6545
   378.68         26.3402
   378.82         25.7868
   378.96         25.0642
   379.10         24.2616
   379.24         23.4751
   379.38         22.7935
   379.52         22.2892
   379.66         22.0145
   379.80         21.9990
   379.94         22.2470
   380.08         22.7389
   380.22         23.4350
   380.36         24.2789
   380.50         25.2034
   380.64         26.1380
   380.78         27.0153
   380.92         27.7788
   381.06         28.3904
   381.20         28.8313
   381.34         29.1006
   381.48         29.2096
   381.62         29.1722
   381.76         28.9983
   381.90         28.6915
   382.04         28.2500
   382.18         27.6695
   382.32         26.9502
   382.46         26.1014
   382.60         25.1465
   382.74         24.1278
   382.88         23.1068
   383.02         22.1589
   383.16         21.3616
   383.30         20.7825
   383.44         20.4722
   383.58         20.4600
   383.72         20.7501
   383.86         21.3224
   384.00         22.1387
   384.14         23.1459
   384.28         24.2771
   384.42         25.4573
   384.56         26.6122
   384.70         27.6759
   384.84         28.6002
   384.98         29.3632
   385.12         29.9683
   385.26         30.4362
   385.40         30.7942
   385.54         31.0701
   385.68         31.2865
   385.82         31.4574
   385.96         31.5880
   386.10         31.6790
   386.24         31.7287
   386.38         31.7337
   386.52         31.6888
   386.66         31.5866
   386.80         31.4175
   386.94         31.1732
   387.08         30.8469
   387.22         30.4303
   387.36         29.9123
   387.50         29.2818
   387.64         28.5323
   387.78         27.6659
   387.92         26.6983
   388.06         25.6629
   388.20         24.6096
   388.34         23.6002
   388.48         22.7007
   388.62         21.9730
   388.76         21.4693
   388.90         21.2262
   389.04         21.2571
   389.18         21.5503
   389.32         22.0722
   389.46         22.7739
   389.60         23.5974
   389.74         24.4819
   389.88         25.3704
   390.02         26.2174
   390.16         26.9935
   390.30         27.6865
   390.44         28.2980
   390.58         28.8359
   390.72         29.3081
   390.86         29.7195
   391.00         30.0724
   391.14         30.3654
   391.28         30.5917
   391.42         30.7397
   391.56         30.7919
   391.70         30.7245
   391.84         30.5079
   391.98         30.1093
   392.12         29.5010
   392.26         28.6720
   392.40         27.6369
   392.54         26.4409
   392.68         25.1586
   392.82         23.8859
   392.96         22.7262
   393.10         21.7764
   393.24         21.1166
   393.38         20.8017
   393.52         20.8544
   393.66         21.2602
   393.80         21.9680
   393.94         22.8966
   394.08         23.9479
   394.22         25.0201
   394.36         26.0184
   394.50         26.8661
   394.64         27.5143
   394.78         27.9468
   394.92         28.1735
   395.06         28.2171
   395.20         28.0987
   395.34         27.8263
   395.48         27.3925
   395.62         26.7806
   395.76         25.9784
   395.90         24.9928
   396.04         23.8567
   396.18         22.6287
   396.32         21.3891
   396.46         20.2313
   396.60         19.2495
   396.74         18.5270
   396.88         18.1255
   397.02         18.0781
   397.16         18.3870
   397.30         19.0242
   397.44         19.9342
   397.58         21.0417
   397.72         22.2613
   397.86         23.5094
   398.00         24.7134
   398.14         25.8202
   398.28         26.7995
   398.42         27.6437
   398.56         28.3620
   398.70         28.9721
   398.84         29.4943
   398.98         29.9472
   399.12         30.3444
   399.26         30.6920
   399.40         30.9905
   399.54         31.2400
   399.68         31.4439
   399.82         31.6094
   399.96         31.7463
   400.10         31.8649
   400.24         31.9746
   400.38         32.0822
   400.52         32.1922
   400.66         32.3068
   400.80         32.4259
   400.94         32.5478
   401.08         32.6699
   401.22         32.7892
   401.36         32.9043
   401.50         33.0149
   401.64         33.1182
   401.78         33.2054
   401.92         33.2631
   402.06         33.2808
   402.20         33.2537
   402.34         33.1844
   402.48         33.0812
   402.62         32.9561
   402.76         32.8216
   402.90         32.6901
   403.04         32.5736
   403.18         32.4809
   403.32         32.4148
   403.46         32.3734
   403.60         32.3546
   403.74         32.3569
   403.88         32.3784
   404.02         32.4149
   404.16         32.4585
   404.30         32.4981
   404.44         32.5219
   404.58         32.5222
   404.72         32.4994
   404.86         32.4597
   405.00         32.4120
   405.14         32.3610
   405.28         32.3057
   405.42         32.2424
   405.56         32.1679
   405.70         32.0814
   405.84         31.9838
   405.98         31.8789
   406.12         31.7740
   406.26         31.6756
   406.40         31.5835
   406.54         31.4889
   406.68         31.3798
   406.82         31.2485
   406.96         31.0939
   407.10         30.9194
   407.24         30.7314
   407.38         30.5389
   407.52         30.3501
   407.66         30.1702
   407.80         30.0008
   407.94         29.8410
   408.08         29.6860
   408.22         29.5258
   408.36         29.3452
   408.50         29.1235
   408.64         28.8354
   408.78         28.4524
   408.92         27.9467
   409.06         27.2989
   409.20         26.5088
   409.34         25.6042
   409.48         24.6375
   409.62         23.6747
   409.76         22.7848
   409.90         22.0337
   410.04         21.4785
   410.18         21.1615
   410.32         21.1060
   410.46         21.3155
   410.60         21.7713
   410.74         22.4340
   410.88         23.2492
   411.02         24.1534
   411.16         25.0801
   411.30         25.9675
   411.44         26.7673
   411.58         27.4496
   411.72         28.0051
   411.86         28.4411
   412.00         28.7736
   412.14         29.0194
   412.28         29.1957
   412.42         29.3217
   412.56         29.4189
   412.70         29.5095
   412.84         29.6146
   412.98         29.7488
   413.12         29.9166
   413.26         30.1132
   413.40         30.3291
   413.54         30.5547
   413.68         30.7804
   413.82         30.9963
   413.96         31.1926
   414.10         31.3598
   414.24         31.4885
   414.38         31.5713
   414.52         31.6035
   414.66         31.5860
   414.80         31.5266
   414.94         31.4396
   415.08         31.3419
   415.22         31.2495
   415.36         31.1748
   415.50         31.1231
   415.64         31.0924
   415.78         31.0781
   415.92         31.0756
   416.06         31.0771
   416.20         31.0706
   416.34         31.0425
   416.48         30.9808
   416.62         30.8777
   416.76         30.7324
   416.90         30.5516
   417.04         30.3483
   417.18         30.1395
   417.32         29.9447
   417.46         29.7831
   417.60         29.6688
   417.74         29.6081
   417.88         29.6010
   418.02         29.6420
   418.16         29.7219
   418.30         29.8296
   418.44         29.9525
   418.58         30.0743
   418.72         30.1785
   418.86         30.2551
   419.00         30.3018
   419.14         30.3211
   419.28         30.3186
   419.42         30.3022
   419.56         30.2808
   419.70         30.2624
   419.84         30.2551
   419.98         30.2680
   420.12         30.3065
   420.26         30.3686
   420.40         30.4475
   420.54         30.5351
   420.68         30.6231
   420.82         30.7028
   420.96         30.7659
   421.10         30.8040
   421.24         30.8093
   421.38         30.7755
   421.52         30.6989
   421.66         30.5821
   421.80         30.4348
   421.94         30.2734
   422.08         30.1138
   422.22         29.9673
   422.36         29.8415
   422.50         29.7413
   422.64         29.6681
   422.78         29.6202
   422.92         29.5957
   423.06         29.5949
   423.20         29.6180
   423.34         29.6623
   423.48         29.7204
   423.62         29.7808
   423.76         29.8314
   423.90         29.8631
   424.04         29.8729
   424.18         29.8670
   424.32         29.8568
   424.46         29.8527
   424.60         29.8574
   424.74         29.8656
   424.88         29.8700
   425.02         29.8682
   425.16         29.8624
   425.30         29.8582
   425.44         29.8614
   425.58         29.8768
   425.72         29.9049
   425.86         29.9409
   426.00         29.9760
   426.14         30.0006
   426.28         30.0083
   426.42         29.9986
   426.56         29.9749
   426.70         29.9433
   426.84         29.9097
   426.98         29.8786
   427.12         29.8526
   427.26         29.8332
   427.40         29.8225
   427.54         29.8219
   427.68         29.8296
   427.82         29.8374
   427.96         29.8331
   428.10         29.8059
   428.24         29.7487
   428.38         29.6572
   428.52         29.5311
   428.66         29.3727
   428.80         29.1864
   428.94         28.9787
   429.08         28.7577
   429.22         28.5315
   429.36         28.3076
   429.50         28.0915
   429.64         27.8875
   429.78         27.7005
   429.92         27.5369
   430.06         27.4020
   430.20         27.2969
   430.34         27.2211
   430.48         27.1759
   430.62         27.1639
   430.76         27.1848
   430.90         27.2316
   431.04         27.2914
   431.18         27.3471
   431.32         27.3790
   431.46         27.3705
   431.60         27.3137
   431.74         27.2087
   431.88         27.0593
   432.02         26.8690
   432.16         26.6408
   432.30         26.3766
   432.44         26.0743
   432.58         25.7236
   432.72         25.3058
   432.86         24.8000
   433.00         24.1958
   433.14         23.4997
   433.28         22.7363
   433.42         21.9453
   433.56         21.1763
   433.70         20.4830
   433.84         19.9152
   433.98         19.5154
   434.12         19.3162
   434.26         19.3378
   434.40         19.5834
   434.54         20.0364
   434.68         20.6620
   434.82         21.4133
   434.96         22.2365
   435.10         23.0770
   435.24         23.8875
   435.38         24.6353
   435.52         25.3035
   435.66         25.8887
   435.80         26.3943
   435.94         26.8246
   436.08         27.1831
   436.22         27.4706
   436.36         27.6866
   436.50         27.8343
   436.64         27.9258
   436.78         27.9791
   436.92         28.0123
   437.06         28.0372
   437.20         28.0567
   437.34         28.0686
   437.48         28.0711
   437.62         28.0643
   437.76         28.0489
   437.90         28.0269
   438.04         27.9998
   438.18         27.9689
   438.32         27.9354
   438.46         27.9040
   438.60         27.8811
   438.74         27.8716
   438.88         27.8758
   439.02         27.8932
   439.16         27.9247
   439.30         27.9693
   439.44         28.0213
   439.58         28.0718
   439.72         28.1135
   439.86         28.1455
   440.00         28.1727
   440.14         28.2008
   440.28         28.2313
   440.42         28.2601
   440.56         28.2822
   440.70         28.2950
   440.84         28.2999
   440.98         28.2998
   441.12         28.2972
   441.26         28.2933
   441.40         28.2884
   441.54         28.2846
   441.68         28.2871
   441.82         28.3002
   441.96         28.3241
   442.10         28.3544
   442.24         28.3838
   442.38         28.4047
   442.52         28.4129
   442.66         28.4071
   442.80         28.3873
   442.94         28.3547
   443.08         28.3110
   443.22         28.2595
   443.36         28.2052
   443.50         28.1529
   443.64         28.1058
   443.78         28.0664
   443.92         28.0379
   444.06         28.0221
   444.20         28.0169
   444.34         28.0144
   444.48         28.0041
   444.62         27.9772
   444.76         27.9294
   444.90         27.8612
   445.04         27.7776
   445.18         27.6863
   445.32         27.5946
   445.46         27.5061
   445.60         27.4215
   445.74         27.3422
   445.88         27.2736
   446.02         27.2240
   446.16         27.2009
   446.30         27.2078
   446.44         27.2437
   446.58         27.3037
   446.72         27.3779
   446.86         27.4513
   447.00         27.5086
   447.14         27.5403
   447.28         27.5463
   447.42         27.5316
   447.56         27.5023
   447.70         27.4636
   447.84         27.4198
   447.98         27.3751
   448.12         27.3338
   448.26         27.3015
   448.40         27.2857
   448.54         27.2947
   448.68         27.3334
   448.82         27.4002
   448.96         27.4882
   449.10         27.5887
   449.24         27.6939
   449.38         27.7969
   449.52         27.8927
   449.66         27.9807
   449.80         28.0648
   449.94         28.1483
   450.08         28.2300
   450.22         28.3032
   450.36         28.3609
   450.50         28.3982
   450.64         28.4125
   450.78         28.4016
   450.92         28.3640
   451.06         28.3006
   451.20         28.2136
   451.34         28.1039
   451.48         27.9722
   451.62         27.8221
   451.76         27.6597
   451.90         27.4908
   452.04         27.3187
   452.18         27.1455
   452.32         26.9760
   452.46         26.8195
   452.60         26.6872
   452.74         26.5871
   452.88         26.5235
   453.02         26.4987
   453.16         26.5136
   453.30         26.5659
   453.44         26.6495
   453.58         26.7538
   453.72         26.8634
   453.86         26.9609
   454.00         27.0308
   454.14         27.0622
   454.28         27.0489
   454.42         26.9897
   454.56         26.8908
   454.70         26.7657
   454.84         26.6342
   454.98         26.5169
   455.12         26.4298
   455.26         26.3811
   455.40         26.3729
   455.54         26.4045
   455.68         26.4730
   455.82         26.5713
   455.96         26.6864
   456.10         26.8029
   456.24         26.9076
   456.38         26.9923
   456.52         27.0550
   456.66         27.0969
   456.80         27.1193
   456.94         27.1236
