# File SAO63349
# Wavelength [nm]    Normalized Amplitude
   349.70         0.1929
   349.84         0.1886
   349.98         0.1868
   350.12         0.1871
   350.26         0.1883
   350.40         0.1890
   350.54         0.1884
   350.68         0.1865
   350.82         0.1842
   350.96         0.1825
   351.10         0.1820
   351.24         0.1825
   351.38         0.1842
   351.52         0.1865
   351.66         0.1884
   351.80         0.1890
   351.94         0.1883
   352.08         0.1871
   352.22         0.1868
   352.36         0.1886
   352.50         0.1929
   352.64         0.1991
   352.78         0.2065
   352.92         0.2148
   353.06         0.2239
   353.20         0.2338
   353.34         0.2443
   353.48         0.2550
   353.62         0.2656
   353.76         0.2750
   353.90         0.2827
   354.04         0.2885
   354.18         0.2926
   354.32         0.2953
   354.46         0.2968
   354.60         0.2977
   354.74         0.2980
   354.88         0.2983
   355.02         0.2984
   355.16         0.2982
   355.30         0.2976
   355.44         0.2962
   355.58         0.2932
   355.72         0.2877
   355.86         0.2795
   356.00         0.2684
   356.14         0.2546
   356.28         0.2380
   356.42         0.2188
   356.56         0.1980
   356.70         0.1772
   356.84         0.1583
   356.98         0.1434
   357.12         0.1346
   357.26         0.1330
   357.40         0.1390
   357.54         0.1512
   357.68         0.1673
   357.82         0.1847
   357.96         0.2008
   358.10         0.2139
   358.24         0.2230
   358.38         0.2276
   358.52         0.2282
   358.66         0.2253
   358.80         0.2196
   358.94         0.2121
   359.08         0.2041
   359.22         0.1970
   359.36         0.1921
   359.50         0.1900
   359.64         0.1903
   359.78         0.1920
   359.92         0.1932
   360.06         0.1926
   360.20         0.1896
   360.34         0.1848
   360.48         0.1787
   360.62         0.1725
   360.76         0.1670
   360.90         0.1630
   361.04         0.1609
   361.18         0.1609
   361.32         0.1635
   361.46         0.1690
   361.60         0.1773
   361.74         0.1879
   361.88         0.1999
   362.02         0.2123
   362.16         0.2240
   362.30         0.2342
   362.44         0.2424
   362.58         0.2484
   362.72         0.2527
   362.86         0.2559
   363.00         0.2589
   363.14         0.2623
   363.28         0.2664
   363.42         0.2713
   363.56         0.2768
   363.70         0.2824
   363.84         0.2875
   363.98         0.2917
   364.12         0.2948
   364.26         0.2963
   364.40         0.2965
   364.54         0.2957
   364.68         0.2949
   364.82         0.2947
   364.96         0.2958
   365.10         0.2988
   365.24         0.3036
   365.38         0.3105
   365.52         0.3193
   365.66         0.3299
   365.80         0.3412
   365.94         0.3519
   366.08         0.3608
   366.22         0.3670
   366.36         0.3697
   366.50         0.3693
   366.64         0.3665
   366.78         0.3622
   366.92         0.3570
   367.06         0.3515
   367.20         0.3458
   367.34         0.3399
   367.48         0.3341
   367.62         0.3283
   367.76         0.3224
   367.90         0.3167
   368.04         0.3115
   368.18         0.3072
   368.32         0.3045
   368.46         0.3036
   368.60         0.3044
   368.74         0.3066
   368.88         0.3106
   369.02         0.3160
   369.16         0.3219
   369.30         0.3275
   369.44         0.3310
   369.58         0.3315
   369.72         0.3283
   369.86         0.3220
   370.00         0.3132
   370.14         0.3032
   370.28         0.2929
   370.42         0.2837
   370.56         0.2767
   370.70         0.2725
   370.84         0.2712
   370.98         0.2720
   371.12         0.2738
   371.26         0.2758
   371.40         0.2773
   371.54         0.2778
   371.68         0.2768
   371.82         0.2740
   371.96         0.2693
   372.10         0.2631
   372.24         0.2560
   372.38         0.2487
   372.52         0.2416
   372.66         0.2347
   372.80         0.2285
   372.94         0.2233
   373.08         0.2193
   373.22         0.2167
   373.36         0.2155
   373.50         0.2156
   373.64         0.2170
   373.78         0.2193
   373.92         0.2223
   374.06         0.2257
   374.20         0.2293
   374.34         0.2331
   374.48         0.2368
   374.62         0.2402
   374.76         0.2432
   374.90         0.2454
   375.04         0.2465
   375.18         0.2465
   375.32         0.2459
   375.46         0.2451
   375.60         0.2447
   375.74         0.2452
   375.88         0.2470
   376.02         0.2504
   376.16         0.2558
   376.30         0.2632
   376.44         0.2733
   376.58         0.2863
   376.72         0.3021
   376.86         0.3205
   377.00         0.3404
   377.14         0.3606
   377.28         0.3796
   377.42         0.3966
   377.56         0.4108
   377.70         0.4218
   377.84         0.4288
   377.98         0.4315
   378.12         0.4300
   378.26         0.4245
   378.40         0.4156
   378.54         0.4038
   378.68         0.3898
   378.82         0.3748
   378.96         0.3602
   379.10         0.3475
   379.24         0.3382
   379.38         0.3333
   379.52         0.3336
   379.66         0.3392
   379.80         0.3495
   379.94         0.3636
   380.08         0.3795
   380.22         0.3951
   380.36         0.4084
   380.50         0.4179
   380.64         0.4232
   380.78         0.4238
   380.92         0.4193
   381.06         0.4097
   381.20         0.3955
   381.34         0.3778
   381.48         0.3581
   381.62         0.3382
   381.76         0.3198
   381.90         0.3045
   382.04         0.2931
   382.18         0.2860
   382.32         0.2828
   382.46         0.2828
   382.60         0.2850
   382.74         0.2886
   382.88         0.2927
   383.02         0.2967
   383.16         0.3003
   383.30         0.3033
   383.44         0.3053
   383.58         0.3062
   383.72         0.3061
   383.86         0.3056
   384.00         0.3051
   384.14         0.3053
   384.28         0.3065
   384.42         0.3087
   384.56         0.3113
   384.70         0.3139
   384.84         0.3160
   384.98         0.3175
   385.12         0.3181
   385.26         0.3179
   385.40         0.3172
   385.54         0.3166
   385.68         0.3165
   385.82         0.3173
   385.96         0.3191
   386.10         0.3216
   386.24         0.3246
   386.38         0.3280
   386.52         0.3321
   386.66         0.3366
   386.80         0.3414
   386.94         0.3462
   387.08         0.3507
   387.22         0.3545
   387.36         0.3576
   387.50         0.3599
   387.64         0.3616
   387.78         0.3631
   387.92         0.3649
   388.06         0.3676
   388.20         0.3716
   388.34         0.3765
   388.48         0.3818
   388.62         0.3870
   388.76         0.3920
   388.90         0.3970
   389.04         0.4023
   389.18         0.4078
   389.32         0.4130
   389.46         0.4173
   389.60         0.4200
   389.74         0.4205
   389.88         0.4190
   390.02         0.4162
   390.16         0.4131
   390.30         0.4105
   390.44         0.4089
   390.58         0.4087
   390.72         0.4094
   390.86         0.4104
   391.00         0.4109
   391.14         0.4101
   391.28         0.4077
   391.42         0.4035
   391.56         0.3973
   391.70         0.3886
   391.84         0.3769
   391.98         0.3619
   392.12         0.3440
   392.26         0.3240
   392.40         0.3030
   392.54         0.2822
   392.68         0.2625
   392.82         0.2445
   392.96         0.2291
   393.10         0.2167
   393.24         0.2078
   393.38         0.2027
   393.52         0.2018
   393.66         0.2053
   393.80         0.2134
   393.94         0.2260
   394.08         0.2430
   394.22         0.2636
   394.36         0.2867
   394.50         0.3111
   394.64         0.3356
   394.78         0.3589
   394.92         0.3795
   395.06         0.3959
   395.20         0.4070
   395.34         0.4121
   395.48         0.4107
   395.62         0.4029
   395.76         0.3889
   395.90         0.3696
   396.04         0.3466
   396.18         0.3217
   396.32         0.2971
   396.46         0.2751
   396.60         0.2581
   396.74         0.2479
   396.88         0.2454
   397.02         0.2509
   397.16         0.2643
   397.30         0.2848
   397.44         0.3115
   397.58         0.3431
   397.72         0.3782
   397.86         0.4154
   398.00         0.4530
   398.14         0.4899
   398.28         0.5245
   398.42         0.5561
   398.56         0.5839
   398.70         0.6078
   398.84         0.6276
   398.98         0.6441
   399.12         0.6581
   399.26         0.6704
   399.40         0.6816
   399.54         0.6920
   399.68         0.7023
   399.82         0.7129
   399.96         0.7243
   400.10         0.7367
   400.24         0.7499
   400.38         0.7638
   400.52         0.7781
   400.66         0.7925
   400.80         0.8064
   400.94         0.8193
   401.08         0.8306
   401.22         0.8401
   401.36         0.8478
   401.50         0.8542
   401.64         0.8598
   401.78         0.8645
   401.92         0.8675
   402.06         0.8680
   402.20         0.8655
   402.34         0.8603
   402.48         0.8533
   402.62         0.8461
   402.76         0.8405
   402.90         0.8382
   403.04         0.8401
   403.18         0.8460
   403.32         0.8549
   403.46         0.8654
   403.60         0.8759
   403.74         0.8854
   403.88         0.8933
   404.02         0.8999
   404.16         0.9053
   404.30         0.9096
   404.44         0.9127
   404.58         0.9146
   404.72         0.9161
   404.86         0.9184
   405.00         0.9224
   405.14         0.9282
   405.28         0.9350
   405.42         0.9416
   405.56         0.9467
   405.70         0.9495
   405.84         0.9496
   405.98         0.9474
   406.12         0.9440
   406.26         0.9411
   406.40         0.9398
   406.54         0.9405
   406.68         0.9431
   406.82         0.9474
   406.96         0.9533
   407.10         0.9611
   407.24         0.9711
   407.38         0.9839
   407.52         1.0000
   407.66         1.0197
   407.80         1.0430
   407.94         1.0697
   408.08         1.0992
   408.22         1.1303
   408.36         1.1606
   408.50         1.1871
   408.64         1.2068
   408.78         1.2173
   408.92         1.2171
   409.06         1.2056
   409.20         1.1842
   409.34         1.1555
   409.48         1.1230
   409.62         1.0906
   409.76         1.0612
   409.90         1.0371
   410.04         1.0197
   410.18         1.0095
   410.32         1.0061
   410.46         1.0081
   410.60         1.0135
   410.74         1.0203
   410.88         1.0265
   411.02         1.0306
   411.16         1.0322
   411.30         1.0323
   411.44         1.0324
   411.58         1.0343
   411.72         1.0391
   411.86         1.0472
   412.00         1.0580
   412.14         1.0703
   412.28         1.0824
   412.42         1.0929
   412.56         1.1006
   412.70         1.1052
   412.84         1.1066
   412.98         1.1048
   413.12         1.0992
   413.26         1.0900
   413.40         1.0775
   413.54         1.0630
   413.68         1.0485
   413.82         1.0355
   413.96         1.0253
   414.10         1.0185
   414.24         1.0154
   414.38         1.0164
   414.52         1.0219
   414.66         1.0327
   414.80         1.0494
   414.94         1.0723
   415.08         1.1007
   415.22         1.1330
   415.36         1.1668
   415.50         1.1991
   415.64         1.2274
   415.78         1.2499
   415.92         1.2655
   416.06         1.2733
   416.20         1.2726
   416.34         1.2631
   416.48         1.2453
   416.62         1.2213
   416.76         1.1940
   416.90         1.1669
   417.04         1.1434
   417.18         1.1262
   417.32         1.1174
   417.46         1.1176
   417.60         1.1266
   417.74         1.1430
   417.88         1.1645
   418.02         1.1887
   418.16         1.2134
   418.30         1.2368
   418.44         1.2567
   418.58         1.2713
   418.72         1.2788
   418.86         1.2785
   419.00         1.2709
   419.14         1.2571
   419.28         1.2390
   419.42         1.2183
   419.56         1.1970
   419.70         1.1768
   419.84         1.1595
   419.98         1.1463
   420.12         1.1380
   420.26         1.1353
   420.40         1.1380
   420.54         1.1456
   420.68         1.1573
   420.82         1.1719
   420.96         1.1874
   421.10         1.2010
   421.24         1.2094
   421.38         1.2096
   421.52         1.1993
   421.66         1.1773
   421.80         1.1440
   421.94         1.1016
   422.08         1.0536
   422.22         1.0042
   422.36         0.9581
   422.50         0.9193
   422.64         0.8914
   422.78         0.8771
   422.92         0.8778
   423.06         0.8940
   423.20         0.9251
   423.34         0.9696
   423.48         1.0250
   423.62         1.0872
   423.76         1.1514
   423.90         1.2124
   424.04         1.2660
   424.18         1.3089
   424.32         1.3396
   424.46         1.3579
   424.60         1.3650
   424.74         1.3622
   424.88         1.3512
   425.02         1.3339
   425.16         1.3134
   425.30         1.2933
   425.44         1.2775
   425.58         1.2696
   425.72         1.2719
   425.86         1.2846
   426.00         1.3057
   426.14         1.3312
   426.28         1.3562
   426.42         1.3764
   426.56         1.3888
   426.70         1.3927
   426.84         1.3889
   426.98         1.3796
   427.12         1.3673
   427.26         1.3548
   427.40         1.3440
   427.54         1.3364
   427.68         1.3330
   427.82         1.3334
   427.96         1.3360
   428.10         1.3387
   428.24         1.3393
   428.38         1.3363
   428.52         1.3289
   428.66         1.3172
   428.80         1.3023
   428.94         1.2860
   429.08         1.2705
   429.22         1.2578
   429.36         1.2494
   429.50         1.2456
   429.64         1.2455
   429.78         1.2474
   429.92         1.2500
   430.06         1.2533
   430.20         1.2580
   430.34         1.2653
   430.48         1.2772
   430.62         1.2966
   430.76         1.3264
   430.90         1.3683
   431.04         1.4214
   431.18         1.4828
   431.32         1.5484
   431.46         1.6131
   431.60         1.6725
   431.74         1.7236
   431.88         1.7650
   432.02         1.7966
   432.16         1.8195
   432.30         1.8360
   432.44         1.8497
   432.58         1.8638
   432.72         1.8804
   432.86         1.8992
   433.00         1.9193
   433.14         1.9397
   433.28         1.9592
   433.42         1.9761
   433.56         1.9889
   433.70         1.9967
   433.84         1.9995
   433.98         1.9984
   434.12         1.9943
   434.26         1.9887
   434.40         1.9833
   434.54         1.9798
   434.68         1.9793
   434.82         1.9817
   434.96         1.9866
   435.10         1.9928
   435.24         1.9998
   435.38         2.0077
   435.52         2.0172
   435.66         2.0298
   435.80         2.0462
   435.94         2.0664
   436.08         2.0892
   436.22         2.1129
   436.36         2.1350
   436.50         2.1528
   436.64         2.1643
   436.78         2.1688
   436.92         2.1665
   437.06         2.1581
   437.20         2.1433
   437.34         2.1215
   437.48         2.0928
   437.62         2.0585
   437.76         2.0214
   437.90         1.9840
   438.04         1.9485
   438.18         1.9173
   438.32         1.8924
   438.46         1.8761
   438.60         1.8709
   438.74         1.8780
   438.88         1.8972
   439.02         1.9270
   439.16         1.9647
   439.30         2.0062
   439.44         2.0458
   439.58         2.0770
   439.72         2.0949
   439.86         2.0977
   440.00         2.0875
   440.14         2.0684
   440.28         2.0454
   440.42         2.0224
   440.56         2.0030
   440.70         1.9907
   440.84         1.9887
   440.98         1.9988
   441.12         2.0209
   441.26         2.0527
   441.40         2.0902
   441.54         2.1289
   441.68         2.1644
   441.82         2.1936
   441.96         2.2142
   442.10         2.2258
   442.24         2.2296
   442.38         2.2276
   442.52         2.2219
   442.66         2.2147
   442.80         2.2080
   442.94         2.2031
   443.08         2.2007
   443.22         2.2018
   443.36         2.2073
   443.50         2.2177
   443.64         2.2327
   443.78         2.2514
   443.92         2.2728
   444.06         2.2960
   444.20         2.3197
   444.34         2.3420
   444.48         2.3607
   444.62         2.3734
   444.76         2.3784
   444.90         2.3744
   445.04         2.3606
   445.18         2.3381
   445.32         2.3090
   445.46         2.2757
   445.60         2.2402
   445.74         2.2047
   445.88         2.1722
   446.02         2.1463
   446.16         2.1298
   446.30         2.1249
   446.44         2.1328
   446.58         2.1538
   446.72         2.1873
   446.86         2.2307
   447.00         2.2805
   447.14         2.3333
   447.28         2.3866
   447.42         2.4384
   447.56         2.4865
   447.70         2.5290
   447.84         2.5645
   447.98         2.5926
   448.12         2.6133
   448.26         2.6270
   448.40         2.6344
   448.54         2.6365
   448.68         2.6352
   448.82         2.6329
   448.96         2.6320
   449.10         2.6347
   449.24         2.6427
   449.38         2.6565
   449.52         2.6759
   449.66         2.7003
   449.80         2.7295
   449.94         2.7623
   450.08         2.7960
   450.22         2.8271
   450.36         2.8528
   450.50         2.8714
   450.64         2.8826
   450.78         2.8860
   450.92         2.8823
   451.06         2.8728
   451.20         2.8591
   451.34         2.8425
   451.48         2.8232
   451.62         2.8009
   451.76         2.7752
   451.90         2.7459
   452.04         2.7128
   452.18         2.6760
   452.32         2.6364
   452.46         2.5958
   452.60         2.5575
   452.74         2.5252
   452.88         2.5023
   453.02         2.4916
   453.16         2.4943
   453.30         2.5101
   453.44         2.5371
   453.58         2.5720
   453.72         2.6106
   453.86         2.6486
   454.00         2.6825
   454.14         2.7091
   454.28         2.7270
   454.42         2.7373
   454.56         2.7429
   454.70         2.7476
   454.84         2.7552
   454.98         2.7692
   455.12         2.7925
   455.26         2.8267
   455.40         2.8711
   455.54         2.9246
   455.68         2.9847
   455.82         3.0479
   455.96         3.1097
   456.10         3.1665
   456.24         3.2153
   456.38         3.2539
   456.52         3.2813
   456.66         3.2969
   456.80         3.3014
   456.94         3.2976
   457.08         3.2887
   457.22         3.2764
   457.36         3.2601
   457.50         3.2390
   457.64         3.2130
   457.78         3.1829
   457.92         3.1500
   458.06         3.1151
   458.20         3.0788
   458.34         3.0409
   458.48         3.0021
   458.62         2.9643
   458.76         2.9292
   458.90         2.8982
   459.04         2.8727
   459.18         2.8537
   459.32         2.8424
   459.46         2.8405
   459.60         2.8492
   459.74         2.8692
   459.88         2.8999
   460.02         2.9409
   460.16         2.9914
   460.30         3.0500
   460.44         3.1145
   460.58         3.1823
   460.72         3.2509
   460.86         3.3175
   461.00         3.3796
   461.14         3.4344
