# File SAO76803
# Wavelength [nm]    Normalized Amplitude
   349.70         4.4997
   349.84         4.4913
   349.98         4.5135
   350.12         4.5572
   350.26         4.6070
   350.40         4.6489
   350.54         4.6761
   350.68         4.6916
   350.82         4.7008
   350.96         4.7056
   351.10         4.7069
   351.24         4.7056
   351.38         4.7008
   351.52         4.6916
   351.66         4.6761
   351.80         4.6489
   351.94         4.6070
   352.08         4.5572
   352.22         4.5135
   352.36         4.4913
   352.50         4.4997
   352.64         4.5429
   352.78         4.6235
   352.92         4.7441
   353.06         4.9076
   353.20         5.1132
   353.34         5.3508
   353.48         5.5931
   353.62         5.8068
   353.76         5.9705
   353.90         6.0785
   354.04         6.1361
   354.18         6.1535
   354.32         6.1353
   354.46         6.0787
   354.60         5.9867
   354.74         5.8723
   354.88         5.7500
   355.02         5.6291
   355.16         5.5115
   355.30         5.3941
   355.44         5.2713
   355.58         5.1342
   355.72         4.9751
   355.86         4.7957
   356.00         4.6050
   356.14         4.4130
   356.28         4.2274
   356.42         4.0552
   356.56         3.9063
   356.70         3.7899
   356.84         3.7059
   356.98         3.6463
   357.12         3.6051
   357.26         3.5807
   357.40         3.5650
   357.54         3.5435
   357.68         3.5036
   357.82         3.4389
   357.96         3.3515
   358.10         3.2529
   358.24         3.1644
   358.38         3.1122
   358.52         3.1191
   358.66         3.1973
   358.80         3.3498
   358.94         3.5751
   359.08         3.8669
   359.22         4.2090
   359.36         4.5744
   359.50         4.9309
   359.64         5.2477
   359.78         5.5017
   359.92         5.6788
   360.06         5.7716
   360.20         5.7803
   360.34         5.7176
   360.48         5.6067
   360.62         5.4736
   360.76         5.3417
   360.90         5.2314
   361.04         5.1599
   361.18         5.1390
   361.32         5.1736
   361.46         5.2631
   361.60         5.3993
   361.74         5.5649
   361.88         5.7409
   362.02         5.9108
   362.16         6.0572
   362.30         6.1674
   362.44         6.2426
   362.58         6.2961
   362.72         6.3470
   362.86         6.4153
   363.00         6.5144
   363.14         6.6458
   363.28         6.8008
   363.42         6.9662
   363.56         7.1290
   363.70         7.2754
   363.84         7.3970
   363.98         7.4941
   364.12         7.5672
   364.26         7.6122
   364.40         7.6271
   364.54         7.6227
   364.68         7.6232
   364.82         7.6587
   364.96         7.7578
   365.10         7.9382
   365.24         8.1997
   365.38         8.5248
   365.52         8.8851
   365.66         9.2486
   365.80         9.5859
   365.94         9.8713
   366.08         10.0876
   366.22         10.2291
   366.36         10.2983
   366.50         10.3041
   366.64         10.2506
   366.78         10.1346
   366.92         9.9602
   367.06         9.7452
   367.20         9.5135
   367.34         9.2833
   367.48         9.0603
   367.62         8.8423
   367.76         8.6275
   367.90         8.4222
   368.04         8.2426
   368.18         8.1029
   368.32         8.0100
   368.46         7.9639
   368.60         7.9620
   368.74         8.0058
   368.88         8.0990
   369.02         8.2403
   369.16         8.4183
   369.30         8.6115
   369.44         8.7973
   369.58         8.9562
   369.72         9.0679
   369.86         9.1144
   370.00         9.0885
   370.14         8.9990
   370.28         8.8681
   370.42         8.7225
   370.56         8.5845
   370.70         8.4651
   370.84         8.3612
   370.98         8.2624
   371.12         8.1577
   371.26         8.0390
   371.40         7.9050
   371.54         7.7545
   371.68         7.5829
   371.82         7.3859
   371.96         7.1653
   372.10         6.9280
   372.24         6.6830
   372.38         6.4399
   372.52         6.2073
   372.66         5.9938
   372.80         5.8025
   372.94         5.6311
   373.08         5.4731
   373.22         5.3229
   373.36         5.1800
   373.50         5.0453
   373.64         4.9200
   373.78         4.8086
   373.92         4.7200
   374.06         4.6635
   374.20         4.6450
   374.34         4.6687
   374.48         4.7342
   374.62         4.8327
   374.76         4.9499
   374.90         5.0742
   375.04         5.1994
   375.18         5.3229
   375.32         5.4445
   375.46         5.5627
   375.60         5.6755
   375.74         5.7821
   375.88         5.8840
   376.02         5.9854
   376.16         6.0908
   376.30         6.2099
   376.44         6.3581
   376.58         6.5489
   376.72         6.7881
   376.86         7.0747
   377.00         7.3990
   377.14         7.7415
   377.28         8.0814
   377.42         8.4034
   377.56         8.6940
   377.70         8.9374
   377.84         9.1143
   377.98         9.2078
   378.12         9.2084
   378.26         9.1154
   378.40         8.9338
   378.54         8.6739
   378.68         8.3500
   378.82         7.9802
   378.96         7.5876
   379.10         7.2002
   379.24         6.8489
   379.38         6.5639
   379.52         6.3660
   379.66         6.2618
   379.80         6.2460
   379.94         6.3058
   380.08         6.4208
   380.22         6.5632
   380.36         6.7033
   380.50         6.8132
   380.64         6.8707
   380.78         6.8608
   380.92         6.7757
   381.06         6.6133
   381.20         6.3771
   381.34         6.0775
   381.48         5.7328
   381.62         5.3676
   381.76         5.0061
   381.90         4.6666
   382.04         4.3582
   382.18         4.0839
   382.32         3.8460
   382.46         3.6479
   382.60         3.4933
   382.74         3.3806
   382.88         3.2983
   383.02         3.2316
   383.16         3.1738
   383.30         3.1296
   383.44         3.1061
   383.58         3.1076
   383.72         3.1386
   383.86         3.2032
   384.00         3.3028
   384.14         3.4350
   384.28         3.5933
   384.42         3.7697
   384.56         3.9555
   384.70         4.1400
   384.84         4.3115
   384.98         4.4625
   385.12         4.5900
   385.26         4.6917
   385.40         4.7640
   385.54         4.8047
   385.68         4.8184
   385.82         4.8146
   385.96         4.7989
   386.10         4.7714
   386.24         4.7334
   386.38         4.6912
   386.52         4.6518
   386.66         4.6193
   386.80         4.5953
   386.94         4.5790
   387.08         4.5702
   387.22         4.5708
   387.36         4.5840
   387.50         4.6141
   387.64         4.6670
   387.78         4.7493
   387.92         4.8686
   388.06         5.0344
   388.20         5.2582
   388.34         5.5478
   388.48         5.9029
   388.62         6.3153
   388.76         6.7705
   388.90         7.2489
   389.04         7.7279
   389.18         8.1830
   389.32         8.5896
   389.46         8.9285
   389.60         9.1884
   389.74         9.3679
   389.88         9.4739
   390.02         9.5182
   390.16         9.5189
   390.30         9.5010
   390.44         9.4921
   390.58         9.5114
   390.72         9.5618
   390.86         9.6298
   391.00         9.6897
   391.14         9.7153
   391.28         9.6881
   391.42         9.5970
   391.56         9.4347
   391.70         9.1962
   391.84         8.8775
   391.98         8.4783
   392.12         8.0045
   392.26         7.4695
   392.40         6.8951
   392.54         6.3100
   392.68         5.7455
   392.82         5.2322
   392.96         4.7957
   393.10         4.4540
   393.24         4.2177
   393.38         4.0944
   393.52         4.0900
   393.66         4.2089
   393.80         4.4516
   393.94         4.8094
   394.08         5.2620
   394.22         5.7801
   394.36         6.3325
   394.50         6.8905
   394.64         7.4306
   394.78         7.9340
   394.92         8.3836
   395.06         8.7617
   395.20         9.0486
   395.34         9.2239
   395.48         9.2700
   395.62         9.1758
   395.76         8.9400
   395.90         8.5734
   396.04         8.1009
   396.18         7.5601
   396.32         7.0002
   396.46         6.4766
   396.60         6.0444
   396.74         5.7516
   396.88         5.6355
   397.02         5.7202
   397.16         6.0122
   397.30         6.5000
   397.44         7.1560
   397.58         7.9420
   397.72         8.8141
   397.86         9.7270
   398.00         10.6383
   398.14         11.5118
   398.28         12.3180
   398.42         13.0366
   398.56         13.6597
   398.70         14.1889
   398.84         14.6356
   398.98         15.0171
   399.12         15.3499
   399.26         15.6426
   399.40         15.8951
   399.54         16.1050
   399.68         16.2743
   399.82         16.4084
   399.96         16.5130
   400.10         16.5969
   400.24         16.6732
   400.38         16.7556
   400.52         16.8545
   400.66         16.9769
   400.80         17.1258
   400.94         17.2985
   401.08         17.4883
   401.22         17.6868
   401.36         17.8852
   401.50         18.0724
   401.64         18.2322
   401.78         18.3449
   401.92         18.3898
   402.06         18.3501
   402.20         18.2195
   402.34         18.0045
   402.48         17.7236
   402.62         17.4079
   402.76         17.0956
   402.90         16.8205
   403.04         16.6020
   403.18         16.4423
   403.32         16.3289
   403.46         16.2415
   403.60         16.1632
   403.74         16.0892
   403.88         16.0294
   404.02         15.9984
   404.16         16.0043
   404.30         16.0449
   404.44         16.1093
   404.58         16.1823
   404.72         16.2519
   404.86         16.3152
   405.00         16.3738
   405.14         16.4232
   405.28         16.4484
   405.42         16.4290
   405.56         16.3505
   405.70         16.2115
   405.84         16.0203
   405.98         15.7941
   406.12         15.5626
   406.26         15.3629
   406.40         15.2242
   406.54         15.1546
   406.68         15.1414
   406.82         15.1647
   406.96         15.2121
   407.10         15.2813
   407.24         15.3777
   407.38         15.5114
   407.52         15.6939
   407.66         15.9348
   407.80         16.2405
   407.94         16.6146
   408.08         17.0529
   408.22         17.5375
   408.36         18.0364
   408.50         18.5074
   408.64         18.9092
   408.78         19.2085
   408.92         19.3812
   409.06         19.4145
   409.20         19.3135
   409.34         19.1050
   409.48         18.8307
   409.62         18.5342
   409.76         18.2520
   409.90         18.0134
   410.04         17.8392
   410.18         17.7416
   410.32         17.7229
   410.46         17.7735
   410.60         17.8703
   410.74         17.9830
   410.88         18.0835
   411.02         18.1512
   411.16         18.1741
   411.30         18.1484
   411.44         18.0776
   411.58         17.9708
   411.72         17.8394
   411.86         17.6927
   412.00         17.5341
   412.14         17.3599
   412.28         17.1648
   412.42         16.9496
   412.56         16.7227
   412.70         16.4965
   412.84         16.2850
   412.98         16.0972
   413.12         15.9300
   413.26         15.7715
   413.40         15.6129
   413.54         15.4552
   413.68         15.3020
   413.82         15.1533
   413.96         15.0053
   414.10         14.8542
   414.24         14.6979
   414.38         14.5354
   414.52         14.3685
   414.66         14.2067
   414.80         14.0677
   414.94         13.9737
   415.08         13.9435
   415.22         13.9852
   415.36         14.0935
   415.50         14.2521
   415.64         14.4402
   415.78         14.6402
   415.92         14.8395
   416.06         15.0275
   416.20         15.1889
   416.34         15.3044
   416.48         15.3584
   416.62         15.3427
   416.76         15.2588
   416.90         15.1160
   417.04         14.9310
   417.18         14.7294
   417.32         14.5424
   417.46         14.3983
   417.60         14.3159
   417.74         14.3035
   417.88         14.3617
   418.02         14.4845
   418.16         14.6625
   418.30         14.8827
   418.44         15.1222
   418.58         15.3479
   418.72         15.5275
   418.86         15.6404
   419.00         15.6800
   419.14         15.6503
   419.28         15.5643
   419.42         15.4459
   419.56         15.3266
   419.70         15.2407
   419.84         15.2159
   419.98         15.2653
   420.12         15.3872
   420.26         15.5684
   420.40         15.7899
   420.54         16.0356
   420.68         16.2980
   420.82         16.5764
   420.96         16.8714
   421.10         17.1772
   421.24         17.4780
   421.38         17.7484
   421.52         17.9556
   421.66         18.0704
   421.80         18.0812
   421.94         17.9974
   422.08         17.8427
   422.22         17.6433
   422.36         17.4211
   422.50         17.1963
   422.64         16.9914
   422.78         16.8355
   422.92         16.7617
   423.06         16.8032
   423.20         16.9885
   423.34         17.3315
   423.48         17.8190
   423.62         18.4098
   423.76         19.0420
   423.90         19.6470
   424.04         20.1675
   424.18         20.5704
   424.32         20.8476
   424.46         21.0047
   424.60         21.0498
   424.74         20.9881
   424.88         20.8231
   425.02         20.5683
   425.16         20.2581
   425.30         19.9454
   425.44         19.6879
   425.58         19.5331
   425.72         19.5066
   425.86         19.6050
   426.00         19.7930
   426.14         20.0119
   426.28         20.1980
   426.42         20.3014
   426.56         20.2971
   426.70         20.1897
   426.84         20.0034
   426.98         19.7682
   427.12         19.5164
   427.26         19.2811
   427.40         19.0924
   427.54         18.9764
   427.68         18.9516
   427.82         19.0218
   427.96         19.1690
   428.10         19.3564
   428.24         19.5407
   428.38         19.6813
   428.52         19.7459
   428.66         19.7161
   428.80         19.5893
   428.94         19.3768
   429.08         19.1000
   429.22         18.7821
   429.36         18.4376
   429.50         18.0668
   429.64         17.6618
   429.78         17.2196
   429.92         16.7475
   430.06         16.2657
   430.20         15.8062
   430.34         15.4155
   430.48         15.1535
   430.62         15.0857
   430.76         15.2677
   430.90         15.7286
   431.04         16.4585
   431.18         17.4061
   431.32         18.4857
   431.46         19.5932
   431.60         20.6324
   431.74         21.5363
   431.88         22.2662
   432.02         22.8057
   432.16         23.1641
   432.30         23.3791
   432.44         23.5082
   432.58         23.6104
   432.72         23.7286
   432.86         23.8852
   433.00         24.0876
   433.14         24.3309
   433.28         24.5975
   433.42         24.8627
   433.56         25.1018
   433.70         25.2960
   433.84         25.4376
   433.98         25.5316
   434.12         25.5925
   434.26         25.6448
   434.40         25.7150
   434.54         25.8195
   434.68         25.9618
   434.82         26.1332
   434.96         26.3193
   435.10         26.5071
   435.24         26.6920
   435.38         26.8824
   435.52         27.0974
   435.66         27.3570
   435.80         27.6687
   435.94         28.0236
   436.08         28.3972
   436.22         28.7485
   436.36         29.0247
   436.50         29.1757
   436.64         29.1714
   436.78         29.0078
   436.92         28.7025
   437.06         28.2789
   437.20         27.7489
   437.34         27.1170
   437.48         26.3984
   437.62         25.6283
   437.76         24.8511
   437.90         24.1089
   438.04         23.4365
   438.18         22.8604
   438.32         22.4026
   438.46         22.0865
   438.60         21.9355
   438.74         21.9608
   438.88         22.1541
   439.02         22.4921
   439.16         22.9407
   439.30         23.4486
   439.44         23.9442
   439.58         24.3526
   439.72         24.6178
   439.86         24.7198
   440.00         24.6828
   440.14         24.5598
   440.28         24.4049
   440.42         24.2585
   440.56         24.1516
   440.70         24.1141
   440.84         24.1721
   440.98         24.3388
   441.12         24.6081
   441.26         24.9557
   441.40         25.3459
   441.54         25.7411
   441.68         26.1089
   441.82         26.4256
   441.96         26.6766
   442.10         26.8600
   442.24         26.9852
   442.38         27.0640
   442.52         27.1067
   442.66         27.1236
   442.80         27.1249
   442.94         27.1172
   443.08         27.1058
   443.22         27.1039
   443.36         27.1324
   443.50         27.2106
   443.64         27.3492
   443.78         27.5512
   443.92         27.8178
   444.06         28.1435
   444.20         28.5091
   444.34         28.8820
   444.48         29.2218
   444.62         29.4874
   444.76         29.6431
   444.90         29.6626
   445.04         29.5347
   445.18         29.2708
   445.32         28.9026
   445.46         28.4743
   445.60         28.0322
   445.74         27.6227
   445.88         27.2923
   446.02         27.0819
   446.16         27.0168
   446.30         27.1031
   446.44         27.3360
   446.58         27.7037
   446.72         28.1816
   446.86         28.7274
   447.00         29.2900
   447.14         29.8278
   447.28         30.3185
   447.42         30.7574
   447.56         31.1496
   447.70         31.5016
   447.84         31.8179
   447.98         32.0976
   448.12         32.3341
   448.26         32.5162
   448.40         32.6327
   448.54         32.6826
   448.68         32.6786
   448.82         32.6409
   448.96         32.5922
   449.10         32.5595
   449.24         32.5714
   449.38         32.6503
   449.52         32.8086
   449.66         33.0585
   449.80         33.4132
   449.94         33.8709
   450.08         34.4031
   450.22         34.9595
   450.36         35.4841
   450.50         35.9300
   450.64         36.2636
   450.78         36.4692
   450.92         36.5483
   451.06         36.5137
   451.20         36.3851
   451.34         36.1798
   451.48         35.9042
   451.62         35.5591
   451.76         35.1494
   451.90         34.6841
   452.04         34.1735
   452.18         33.6310
   452.32         33.0756
   452.46         32.5338
   452.60         32.0386
   452.74         31.6225
   452.88         31.3098
   453.02         31.1182
   453.16         31.0608
   453.30         31.1401
   453.44         31.3433
   453.58         31.6395
   453.72         31.9812
   453.86         32.3175
   454.00         32.6079
   454.14         32.8268
   454.28         32.9672
   454.42         33.0414
   454.56         33.0759
   454.70         33.1057
   454.84         33.1640
   454.98         33.2750
   455.12         33.4512
   455.26         33.6887
   455.40         33.9661
   455.54         34.2596
   455.68         34.5584
   455.82         34.8565
   455.96         35.1402
   456.10         35.3928
   456.24         35.6044
   456.38         35.7756
   456.52         35.9167
   456.66         36.0389
   456.80         36.1445
   456.94         36.2300
   457.08         36.2923
   457.22         36.3278
   457.36         36.3284
   457.50         36.2834
   457.64         36.1882
   457.78         36.0527
   457.92         35.8989
   458.06         35.7488
   458.20         35.6165
   458.34         35.5041
   458.48         35.4023
   458.62         35.2989
   458.76         35.1883
