# File SAO77849
# Wavelength [nm]    Normalized Amplitude
   349.70         0.8833
   349.84         0.8841
   349.98         0.8879
   350.12         0.8937
   350.26         0.8997
   350.40         0.9038
   350.54         0.9053
   350.68         0.9041
   350.82         0.9012
   350.96         0.8982
   351.10         0.8969
   351.24         0.8982
   351.38         0.9012
   351.52         0.9041
   351.66         0.9053
   351.80         0.9038
   351.94         0.8997
   352.08         0.8937
   352.22         0.8879
   352.36         0.8841
   352.50         0.8833
   352.64         0.8861
   352.78         0.8928
   352.92         0.9036
   353.06         0.9187
   353.20         0.9380
   353.34         0.9604
   353.48         0.9844
   353.62         1.0078
   353.76         1.0284
   353.90         1.0432
   354.04         1.0503
   354.18         1.0488
   354.32         1.0393
   354.46         1.0227
   354.60         1.0000
   354.74         0.9722
   354.88         0.9409
   355.02         0.9079
   355.16         0.8755
   355.30         0.8455
   355.44         0.8191
   355.58         0.7966
   355.72         0.7783
   355.86         0.7644
   356.00         0.7538
   356.14         0.7449
   356.28         0.7364
   356.42         0.7277
   356.56         0.7189
   356.70         0.7100
   356.84         0.6998
   356.98         0.6873
   357.12         0.6722
   357.26         0.6543
   357.40         0.6339
   357.54         0.6116
   357.68         0.5879
   357.82         0.5634
   357.96         0.5398
   358.10         0.5197
   358.24         0.5066
   358.38         0.5035
   358.52         0.5131
   358.66         0.5373
   358.80         0.5778
   358.94         0.6348
   359.08         0.7060
   359.22         0.7870
   359.36         0.8711
   359.50         0.9518
   359.64         1.0236
   359.78         1.0825
   359.92         1.1255
   360.06         1.1517
   360.20         1.1623
   360.34         1.1598
   360.48         1.1474
   360.62         1.1280
   360.76         1.1040
   360.90         1.0782
   361.04         1.0544
   361.18         1.0367
   361.32         1.0289
   361.46         1.0333
   361.60         1.0505
   361.74         1.0795
   361.88         1.1175
   362.02         1.1605
   362.16         1.2048
   362.30         1.2470
   362.44         1.2845
   362.58         1.3159
   362.72         1.3410
   362.86         1.3602
   363.00         1.3747
   363.14         1.3856
   363.28         1.3949
   363.42         1.4052
   363.56         1.4171
   363.70         1.4295
   363.84         1.4405
   363.98         1.4493
   364.12         1.4560
   364.26         1.4603
   364.40         1.4625
   364.54         1.4642
   364.68         1.4676
   364.82         1.4764
   364.96         1.4940
   365.10         1.5228
   365.24         1.5633
   365.38         1.6147
   365.52         1.6737
   365.66         1.7356
   365.80         1.7943
   365.94         1.8439
   366.08         1.8800
   366.22         1.9004
   366.36         1.9067
   366.50         1.9028
   366.64         1.8925
   366.78         1.8774
   366.92         1.8590
   367.06         1.8388
   367.20         1.8185
   367.34         1.7985
   367.48         1.7786
   367.62         1.7583
   367.76         1.7370
   367.90         1.7150
   368.04         1.6935
   368.18         1.6741
   368.32         1.6585
   368.46         1.6484
   368.60         1.6452
   368.74         1.6507
   368.88         1.6662
   369.02         1.6921
   369.16         1.7272
   369.30         1.7681
   369.44         1.8097
   369.58         1.8461
   369.72         1.8718
   369.86         1.8824
   370.00         1.8765
   370.14         1.8566
   370.28         1.8280
   370.42         1.7972
   370.56         1.7686
   370.70         1.7437
   370.84         1.7210
   370.98         1.6980
   371.12         1.6719
   371.26         1.6417
   371.40         1.6077
   371.54         1.5699
   371.68         1.5278
   371.82         1.4802
   371.96         1.4271
   372.10         1.3695
   372.24         1.3097
   372.38         1.2507
   372.52         1.1962
   372.66         1.1490
   372.80         1.1110
   372.94         1.0822
   373.08         1.0603
   373.22         1.0419
   373.36         1.0237
   373.50         1.0045
   373.64         0.9849
   373.78         0.9661
   373.92         0.9501
   374.06         0.9392
   374.20         0.9363
   374.34         0.9439
   374.48         0.9634
   374.62         0.9938
   374.76         1.0322
   374.90         1.0750
   375.04         1.1195
   375.18         1.1641
   375.32         1.2064
   375.46         1.2439
   375.60         1.2734
   375.74         1.2926
   375.88         1.3010
   376.02         1.3014
   376.16         1.2988
   376.30         1.2987
   376.44         1.3064
   376.58         1.3263
   376.72         1.3607
   376.86         1.4087
   377.00         1.4665
   377.14         1.5282
   377.28         1.5873
   377.42         1.6382
   377.56         1.6765
   377.70         1.6993
   377.84         1.7047
   377.98         1.6920
   378.12         1.6628
   378.26         1.6196
   378.40         1.5653
   378.54         1.5037
   378.68         1.4384
   378.82         1.3726
   378.96         1.3096
   379.10         1.2534
   379.24         1.2087
   379.38         1.1788
   379.52         1.1648
   379.66         1.1654
   379.80         1.1781
   379.94         1.1997
   380.08         1.2262
   380.22         1.2537
   380.36         1.2782
   380.50         1.2955
   380.64         1.3018
   380.78         1.2938
   380.92         1.2695
   381.06         1.2286
   381.20         1.1733
   381.34         1.1069
   381.48         1.0338
   381.62         0.9589
   381.76         0.8869
   381.90         0.8217
   382.04         0.7656
   382.18         0.7197
   382.32         0.6845
   382.46         0.6606
   382.60         0.6473
   382.74         0.6425
   382.88         0.6435
   383.02         0.6477
   383.16         0.6538
   383.30         0.6611
   383.44         0.6694
   383.58         0.6783
   383.72         0.6875
   383.86         0.6975
   384.00         0.7092
   384.14         0.7227
   384.28         0.7380
   384.42         0.7542
   384.56         0.7702
   384.70         0.7841
   384.84         0.7943
   384.98         0.7997
   385.12         0.8003
   385.26         0.7971
   385.40         0.7911
   385.54         0.7839
   385.68         0.7775
   385.82         0.7732
   385.96         0.7717
   386.10         0.7728
   386.24         0.7773
   386.38         0.7860
   386.52         0.7994
   386.66         0.8168
   386.80         0.8366
   386.94         0.8574
   387.08         0.8781
   387.22         0.8981
   387.36         0.9180
   387.50         0.9387
   387.64         0.9618
   387.78         0.9895
   387.92         1.0242
   388.06         1.0683
   388.20         1.1234
   388.34         1.1897
   388.48         1.2655
   388.62         1.3482
   388.76         1.4347
   388.90         1.5218
   389.04         1.6054
   389.18         1.6816
   389.32         1.7468
   389.46         1.7985
   389.60         1.8358
   389.74         1.8600
   389.88         1.8742
   390.02         1.8827
   390.16         1.8901
   390.30         1.9006
   390.44         1.9170
   390.58         1.9402
   390.72         1.9680
   390.86         1.9958
   391.00         2.0180
   391.14         2.0300
   391.28         2.0292
   391.42         2.0149
   391.56         1.9866
   391.70         1.9436
   391.84         1.8849
   391.98         1.8100
   392.12         1.7193
   392.26         1.6154
   392.40         1.5024
   392.54         1.3851
   392.68         1.2689
   392.82         1.1599
   392.96         1.0640
   393.10         0.9861
   393.24         0.9306
   393.38         0.9014
   393.52         0.9013
   393.66         0.9324
   393.80         0.9950
   393.94         1.0868
   394.08         1.2033
   394.22         1.3378
   394.36         1.4824
   394.50         1.6290
   394.64         1.7695
   394.78         1.8968
   394.92         2.0045
   395.06         2.0874
   395.20         2.1410
   395.34         2.1621
   395.48         2.1487
   395.62         2.0999
   395.76         2.0175
   395.90         1.9063
   396.04         1.7748
   396.18         1.6347
   396.32         1.4988
   396.46         1.3804
   396.60         1.2912
   396.74         1.2407
   396.88         1.2354
   397.02         1.2773
   397.16         1.3641
   397.30         1.4898
   397.44         1.6469
   397.58         1.8262
   397.72         2.0178
   397.86         2.2111
   398.00         2.3964
   398.14         2.5657
   398.28         2.7138
   398.42         2.8387
   398.56         2.9411
   398.70         3.0245
   398.84         3.0941
   398.98         3.1555
   399.12         3.2139
   399.26         3.2725
   399.40         3.3321
   399.54         3.3919
   399.68         3.4501
   399.82         3.5051
   399.96         3.5562
   400.10         3.6036
   400.24         3.6481
   400.38         3.6904
   400.52         3.7310
   400.66         3.7704
   400.80         3.8089
   400.94         3.8467
   401.08         3.8842
   401.22         3.9213
   401.36         3.9582
   401.50         3.9943
   401.64         4.0283
   401.78         4.0569
   401.92         4.0755
   402.06         4.0795
   402.20         4.0667
   402.34         4.0378
   402.48         3.9956
   402.62         3.9453
   402.76         3.8931
   402.90         3.8442
   403.04         3.8015
   403.18         3.7646
   403.32         3.7310
   403.46         3.6980
   403.60         3.6651
   403.74         3.6337
   403.88         3.6062
   404.02         3.5843
   404.16         3.5685
   404.30         3.5566
   404.44         3.5448
   404.58         3.5294
   404.72         3.5091
   404.86         3.4845
   405.00         3.4572
   405.14         3.4274
   405.28         3.3948
   405.42         3.3584
   405.56         3.3176
   405.70         3.2729
   405.84         3.2269
   405.98         3.1837
   406.12         3.1493
   406.26         3.1310
   406.40         3.1329
   406.54         3.1539
   406.68         3.1896
   406.82         3.2359
   406.96         3.2903
   407.10         3.3506
   407.24         3.4150
   407.38         3.4819
   407.52         3.5503
   407.66         3.6193
   407.80         3.6889
   407.94         3.7590
   408.08         3.8284
   408.22         3.8947
   408.36         3.9539
   408.50         4.0009
   408.64         4.0310
   408.78         4.0416
   408.92         4.0311
   409.06         3.9988
   409.20         3.9466
   409.34         3.8812
   409.48         3.8111
   409.62         3.7439
   409.76         3.6843
   409.90         3.6348
   410.04         3.5968
   410.18         3.5711
   410.32         3.5570
   410.46         3.5528
   410.60         3.5544
   410.74         3.5566
   410.88         3.5544
   411.02         3.5444
   411.16         3.5248
   411.30         3.4967
   411.44         3.4629
   411.58         3.4267
   411.72         3.3915
   411.86         3.3597
   412.00         3.3320
   412.14         3.3076
   412.28         3.2843
   412.42         3.2604
   412.56         3.2349
   412.70         3.2089
   412.84         3.1841
   412.98         3.1613
   413.12         3.1389
   413.26         3.1145
   413.40         3.0869
   413.54         3.0563
   413.68         3.0229
   413.82         2.9861
   413.96         2.9449
   414.10         2.8986
   414.24         2.8474
   414.38         2.7922
   414.52         2.7359
   414.66         2.6832
   414.80         2.6397
   414.94         2.6109
   415.08         2.6008
   415.22         2.6110
   415.36         2.6403
   415.50         2.6847
   415.64         2.7388
   415.78         2.7978
   415.92         2.8575
   416.06         2.9133
   416.20         2.9603
   416.34         2.9943
   416.48         3.0133
   416.62         3.0174
   416.76         3.0088
   416.90         2.9907
   417.04         2.9677
   417.18         2.9454
   417.32         2.9293
   417.46         2.9235
   417.60         2.9295
   417.74         2.9475
   417.88         2.9764
   418.02         3.0154
   418.16         3.0630
   418.30         3.1166
   418.44         3.1718
   418.58         3.2232
   418.72         3.2659
   418.86         3.2975
   419.00         3.3170
   419.14         3.3251
   419.28         3.3242
   419.42         3.3191
   419.56         3.3155
   419.70         3.3183
   419.84         3.3304
   419.98         3.3527
   420.12         3.3841
   420.26         3.4213
   420.40         3.4611
   420.54         3.5020
   420.68         3.5445
   420.82         3.5908
   420.96         3.6432
   421.10         3.7027
   421.24         3.7682
   421.38         3.8345
   421.52         3.8941
   421.66         3.9407
   421.80         3.9724
   421.94         3.9913
   422.08         4.0003
   422.22         4.0019
   422.36         3.9979
   422.50         3.9914
   422.64         3.9859
   422.78         3.9853
   422.92         3.9942
   423.06         4.0183
   423.20         4.0633
   423.34         4.1318
   423.48         4.2213
   423.62         4.3238
   423.76         4.4279
   423.90         4.5220
   424.04         4.5972
   424.18         4.6503
   424.32         4.6829
   424.46         4.6983
   424.60         4.6995
   424.74         4.6879
   424.88         4.6648
   425.02         4.6335
   425.16         4.6005
   425.30         4.5743
   425.44         4.5631
   425.58         4.5724
   425.72         4.6021
   425.86         4.6465
   426.00         4.6938
   426.14         4.7299
   426.28         4.7432
   426.42         4.7275
   426.56         4.6842
   426.70         4.6204
   426.84         4.5462
   426.98         4.4719
   427.12         4.4066
   427.26         4.3576
   427.40         4.3289
   427.54         4.3217
   427.68         4.3346
   427.82         4.3629
   427.96         4.3977
   428.10         4.4286
   428.24         4.4461
   428.38         4.4437
   428.52         4.4195
   428.66         4.3752
   428.80         4.3153
   428.94         4.2458
   429.08         4.1725
   429.22         4.0992
   429.36         4.0264
   429.50         3.9518
   429.64         3.8723
   429.78         3.7864
   429.92         3.6950
   430.06         3.6026
   430.20         3.5177
   430.34         3.4532
   430.48         3.4251
   430.62         3.4494
   430.76         3.5378
   430.90         3.6941
   431.04         3.9124
   431.18         4.1764
   431.32         4.4621
   431.46         4.7432
   431.60         4.9980
   431.74         5.2127
   431.88         5.3804
   432.02         5.4996
   432.16         5.5760
   432.30         5.6211
   432.44         5.6500
   432.58         5.6761
   432.72         5.7083
   432.86         5.7501
   433.00         5.8014
   433.14         5.8590
   433.28         5.9169
   433.42         5.9683
   433.56         6.0079
   433.70         6.0331
   433.84         6.0447
   433.98         6.0461
   434.12         6.0434
   434.26         6.0438
   434.40         6.0522
   434.54         6.0694
   434.68         6.0941
   434.82         6.1237
   434.96         6.1548
   435.10         6.1843
   435.24         6.2107
   435.38         6.2355
   435.52         6.2629
   435.66         6.2968
   435.80         6.3395
   435.94         6.3899
   436.08         6.4438
   436.22         6.4933
   436.36         6.5285
   436.50         6.5409
   436.64         6.5265
   436.78         6.4862
   436.92         6.4231
   437.06         6.3391
   437.20         6.2340
   437.34         6.1079
   437.48         5.9639
   437.62         5.8088
   437.76         5.6504
   437.90         5.4960
   438.04         5.3518
   438.18         5.2229
   438.32         5.1148
   438.46         5.0348
   438.60         4.9906
   438.74         4.9865
   438.88         5.0226
   439.02         5.0957
   439.16         5.1977
   439.30         5.3145
   439.44         5.4276
   439.58         5.5193
   439.72         5.5788
   439.86         5.6047
   440.00         5.6043
   440.14         5.5877
   440.28         5.5630
   440.42         5.5362
   440.56         5.5130
   440.70         5.5002
   440.84         5.5043
   440.98         5.5291
   441.12         5.5752
   441.26         5.6394
   441.40         5.7157
   441.54         5.7976
   441.68         5.8782
   441.82         5.9518
   441.96         6.0150
   442.10         6.0670
   442.24         6.1079
   442.38         6.1374
   442.52         6.1551
   442.66         6.1616
   442.80         6.1586
   442.94         6.1485
   443.08         6.1345
   443.22         6.1213
   443.36         6.1145
   443.50         6.1195
   443.64         6.1411
   443.78         6.1837
   443.92         6.2495
   444.06         6.3364
   444.20         6.4369
   444.34         6.5397
   444.48         6.6330
   444.62         6.7055
   444.76         6.7477
   444.90         6.7540
   445.04         6.7241
   445.18         6.6633
   445.32         6.5801
   445.46         6.4838
   445.60         6.3839
   445.74         6.2918
   445.88         6.2201
   446.02         6.1804
   446.16         6.1805
   446.30         6.2235
   446.44         6.3077
   446.58         6.4278
   446.72         6.5738
   446.86         6.7319
   447.00         6.8882
   447.14         7.0320
   447.28         7.1566
   447.42         7.2591
   447.56         7.3382
   447.70         7.3928
   447.84         7.4223
   447.98         7.4264
   448.12         7.4054
   448.26         7.3602
   448.40         7.2939
   448.54         7.2135
   448.68         7.1291
   448.82         7.0510
   448.96         6.9877
   449.10         6.9462
   449.24         6.9326
   449.38         6.9503
   449.52         6.9996
   449.66         7.0805
   449.80         7.1910
   449.94         7.3248
   450.08         7.4692
   450.22         7.6085
   450.36         7.7282
   450.50         7.8179
   450.64         7.8722
   450.78         7.8912
   450.92         7.8803
   451.06         7.8480
   451.20         7.8029
   451.34         7.7502
   451.48         7.6904
   451.62         7.6210
   451.76         7.5397
   451.90         7.4460
   452.04         7.3393
   452.18         7.2196
   452.32         7.0902
   452.46         6.9581
   452.60         6.8318
   452.74         6.7201
   452.88         6.6317
   453.02         6.5749
   453.16         6.5562
   453.30         6.5776
   453.44         6.6363
   453.58         6.7239
   453.72         6.8273
   453.86         6.9325
   454.00         7.0273
   454.14         7.1031
   454.28         7.1567
   454.42         7.1908
   454.56         7.2112
   454.70         7.2253
   454.84         7.2407
   454.98         7.2644
   455.12         7.3002
   455.26         7.3468
   455.40         7.4004
   455.54         7.4571
   455.68         7.5141
   455.82         7.5673
   455.96         7.6116
   456.10         7.6442
   456.24         7.6644
   456.38         7.6728
   456.52         7.6718
   456.66         7.6634
   456.80         7.6492
   456.94         7.6310
   457.08         7.6113
   457.22         7.5916
   457.36         7.5719
   457.50         7.5519
   457.64         7.5326
   457.78         7.5163
   457.92         7.5065
   458.06         7.5062
   458.20         7.5154
   458.34         7.5316
   458.48         7.5507
   458.62         7.5697
   458.76         7.5860
   458.90         7.5966
   459.04         7.5982
   459.18         7.5884
   459.32         7.5672
   459.46         7.5389
   459.60         7.5125
   459.74         7.4982
   459.88         7.5041
   460.02         7.5350
   460.16         7.5925
   460.30         7.6740
   460.44         7.7739
   460.58         7.8844
   460.72         7.9973
   460.86         8.1063
   461.00         8.2071
   461.14         8.2968
