# File SAO81292
# Wavelength [nm]    Normalized Amplitude
   349.70         0.7376
   349.84         0.7167
   349.98         0.7001
   350.12         0.6881
   350.26         0.6805
   350.40         0.6768
   350.54         0.6763
   350.68         0.6780
   350.82         0.6805
   350.96         0.6827
   351.10         0.6836
   351.24         0.6827
   351.38         0.6805
   351.52         0.6780
   351.66         0.6763
   351.80         0.6768
   351.94         0.6805
   352.08         0.6881
   352.22         0.7001
   352.36         0.7167
   352.50         0.7376
   352.64         0.7622
   352.78         0.7895
   352.92         0.8188
   353.06         0.8492
   353.20         0.8800
   353.34         0.9099
   353.48         0.9379
   353.62         0.9629
   353.76         0.9837
   353.90         0.9999
   354.04         1.0110
   354.18         1.0177
   354.32         1.0211
   354.46         1.0227
   354.60         1.0237
   354.74         1.0250
   354.88         1.0275
   355.02         1.0312
   355.16         1.0351
   355.30         1.0379
   355.44         1.0377
   355.58         1.0327
   355.72         1.0211
   355.86         1.0017
   356.00         0.9741
   356.14         0.9390
   356.28         0.8984
   356.42         0.8546
   356.56         0.8099
   356.70         0.7664
   356.84         0.7259
   356.98         0.6894
   357.12         0.6573
   357.26         0.6297
   357.40         0.6066
   357.54         0.5877
   357.68         0.5723
   357.82         0.5601
   357.96         0.5513
   358.10         0.5461
   358.24         0.5444
   358.38         0.5456
   358.52         0.5499
   358.66         0.5572
   358.80         0.5674
   358.94         0.5801
   359.08         0.5941
   359.22         0.6086
   359.36         0.6229
   359.50         0.6366
   359.64         0.6491
   359.78         0.6593
   359.92         0.6665
   360.06         0.6705
   360.20         0.6715
   360.34         0.6704
   360.48         0.6684
   360.62         0.6665
   360.76         0.6655
   360.90         0.6657
   361.04         0.6683
   361.18         0.6742
   361.32         0.6840
   361.46         0.6975
   361.60         0.7136
   361.74         0.7300
   361.88         0.7442
   362.02         0.7540
   362.16         0.7581
   362.30         0.7562
   362.44         0.7492
   362.58         0.7389
   362.72         0.7270
   362.86         0.7154
   363.00         0.7055
   363.14         0.6985
   363.28         0.6952
   363.42         0.6957
   363.56         0.7001
   363.70         0.7076
   363.84         0.7173
   363.98         0.7278
   364.12         0.7379
   364.26         0.7468
   364.40         0.7540
   364.54         0.7599
   364.68         0.7657
   364.82         0.7726
   364.96         0.7813
   365.10         0.7921
   365.24         0.8045
   365.38         0.8180
   365.52         0.8314
   365.66         0.8439
   365.80         0.8545
   365.94         0.8630
   366.08         0.8692
   366.22         0.8733
   366.36         0.8752
   366.50         0.8749
   366.64         0.8728
   366.78         0.8695
   366.92         0.8656
   367.06         0.8612
   367.20         0.8566
   367.34         0.8522
   367.48         0.8483
   367.62         0.8453
   367.76         0.8442
   367.90         0.8456
   368.04         0.8499
   368.18         0.8578
   368.32         0.8695
   368.46         0.8848
   368.60         0.9028
   368.74         0.9220
   368.88         0.9409
   369.02         0.9580
   369.16         0.9725
   369.30         0.9838
   369.44         0.9912
   369.58         0.9937
   369.72         0.9904
   369.86         0.9808
   370.00         0.9657
   370.14         0.9471
   370.28         0.9276
   370.42         0.9096
   370.56         0.8945
   370.70         0.8829
   370.84         0.8739
   370.98         0.8667
   371.12         0.8601
   371.26         0.8530
   371.40         0.8450
   371.54         0.8354
   371.68         0.8237
   371.82         0.8099
   371.96         0.7936
   372.10         0.7752
   372.24         0.7557
   372.38         0.7367
   372.52         0.7199
   372.66         0.7065
   372.80         0.6976
   372.94         0.6931
   373.08         0.6920
   373.22         0.6927
   373.36         0.6939
   373.50         0.6947
   373.64         0.6947
   373.78         0.6945
   373.92         0.6945
   374.06         0.6953
   374.20         0.6967
   374.34         0.6987
   374.48         0.7010
   374.62         0.7033
   374.76         0.7056
   374.90         0.7082
   375.04         0.7108
   375.18         0.7136
   375.32         0.7166
   375.46         0.7208
   375.60         0.7267
   375.74         0.7354
   375.88         0.7477
   376.02         0.7645
   376.16         0.7865
   376.30         0.8143
   376.44         0.8477
   376.58         0.8853
   376.72         0.9244
   376.86         0.9627
   377.00         0.9978
   377.14         1.0278
   377.28         1.0510
   377.42         1.0663
   377.56         1.0734
   377.70         1.0730
   377.84         1.0664
   377.98         1.0559
   378.12         1.0443
   378.26         1.0341
   378.40         1.0273
   378.54         1.0256
   378.68         1.0301
   378.82         1.0409
   378.96         1.0572
   379.10         1.0773
   379.24         1.0996
   379.38         1.1220
   379.52         1.1423
   379.66         1.1584
   379.80         1.1688
   379.94         1.1731
   380.08         1.1714
   380.22         1.1640
   380.36         1.1521
   380.50         1.1368
   380.64         1.1191
   380.78         1.0996
   380.92         1.0786
   381.06         1.0562
   381.20         1.0325
   381.34         1.0073
   381.48         0.9802
   381.62         0.9518
   381.76         0.9239
   381.90         0.8985
   382.04         0.8781
   382.18         0.8656
   382.32         0.8642
   382.46         0.8754
   382.60         0.8988
   382.74         0.9317
   382.88         0.9701
   383.02         1.0095
   383.16         1.0457
   383.30         1.0751
   383.44         1.0953
   383.58         1.1051
   383.72         1.1046
   383.86         1.0947
   384.00         1.0772
   384.14         1.0549
   384.28         1.0308
   384.42         1.0071
   384.56         0.9852
   384.70         0.9658
   384.84         0.9486
   384.98         0.9328
   385.12         0.9173
   385.26         0.9014
   385.40         0.8854
   385.54         0.8709
   385.68         0.8595
   385.82         0.8528
   385.96         0.8515
   386.10         0.8555
   386.24         0.8637
   386.38         0.8743
   386.52         0.8855
   386.66         0.8959
   386.80         0.9041
   386.94         0.9094
   387.08         0.9114
   387.22         0.9103
   387.36         0.9076
   387.50         0.9060
   387.64         0.9103
   387.78         0.9246
   387.92         0.9511
   388.06         0.9887
   388.20         1.0343
   388.34         1.0835
   388.48         1.1310
   388.62         1.1718
   388.76         1.2014
   388.90         1.2168
   389.04         1.2169
   389.18         1.2029
   389.32         1.1775
   389.46         1.1444
   389.60         1.1081
   389.74         1.0728
   389.88         1.0424
   390.02         1.0201
   390.16         1.0086
   390.30         1.0079
   390.44         1.0155
   390.58         1.0279
   390.72         1.0418
   390.86         1.0547
   391.00         1.0646
   391.14         1.0701
   391.28         1.0704
   391.42         1.0658
   391.56         1.0572
   391.70         1.0458
   391.84         1.0345
   391.98         1.0289
   392.12         1.0378
   392.26         1.0698
   392.40         1.1284
   392.54         1.2111
   392.68         1.3112
   392.82         1.4194
   392.96         1.5247
   393.10         1.6157
   393.24         1.6818
   393.38         1.7153
   393.52         1.7118
   393.66         1.6719
   393.80         1.6002
   393.94         1.5054
   394.08         1.3987
   394.22         1.2920
   394.36         1.1972
   394.50         1.1238
   394.64         1.0776
   394.78         1.0578
   394.92         1.0568
   395.06         1.0647
   395.20         1.0742
   395.34         1.0835
   395.48         1.0966
   395.62         1.1220
   395.76         1.1703
   395.90         1.2482
   396.04         1.3563
   396.18         1.4892
   396.32         1.6376
   396.46         1.7896
   396.60         1.9328
   396.74         2.0550
   396.88         2.1453
   397.02         2.1963
   397.16         2.2049
   397.30         2.1732
   397.44         2.1078
   397.58         2.0186
   397.72         1.9180
   397.86         1.8185
   398.00         1.7320
   398.14         1.6672
   398.28         1.6276
   398.42         1.6101
   398.56         1.6066
   398.70         1.6097
   398.84         1.6150
   398.98         1.6206
   399.12         1.6262
   399.26         1.6318
   399.40         1.6371
   399.54         1.6420
   399.68         1.6471
   399.82         1.6533
   399.96         1.6614
   400.10         1.6718
   400.24         1.6848
   400.38         1.7009
   400.52         1.7207
   400.66         1.7442
   400.80         1.7707
   400.94         1.7983
   401.08         1.8247
   401.22         1.8478
   401.36         1.8662
   401.50         1.8795
   401.64         1.8876
   401.78         1.8896
   401.92         1.8846
   402.06         1.8715
   402.20         1.8499
   402.34         1.8207
   402.48         1.7861
   402.62         1.7495
   402.76         1.7146
   402.90         1.6850
   403.04         1.6634
   403.18         1.6511
   403.32         1.6477
   403.46         1.6515
   403.60         1.6614
   403.74         1.6764
   403.88         1.6960
   404.02         1.7196
   404.16         1.7457
   404.30         1.7725
   404.44         1.7982
   404.58         1.8216
   404.72         1.8425
   404.86         1.8620
   405.00         1.8808
   405.14         1.8992
   405.28         1.9157
   405.42         1.9284
   405.56         1.9352
   405.70         1.9344
   405.84         1.9256
   405.98         1.9093
   406.12         1.8876
   406.26         1.8635
   406.40         1.8397
   406.54         1.8180
   406.68         1.7995
   406.82         1.7847
   406.96         1.7737
   407.10         1.7669
   407.24         1.7647
   407.38         1.7674
   407.52         1.7754
   407.66         1.7886
   407.80         1.8068
   407.94         1.8296
   408.08         1.8559
   408.22         1.8842
   408.36         1.9128
   408.50         1.9396
   408.64         1.9631
   408.78         1.9833
   408.92         2.0026
   409.06         2.0245
   409.20         2.0522
   409.34         2.0864
   409.48         2.1260
   409.62         2.1679
   409.76         2.2079
   409.90         2.2420
   410.04         2.2663
   410.18         2.2779
   410.32         2.2742
   410.46         2.2546
   410.60         2.2197
   410.74         2.1722
   410.88         2.1166
   411.02         2.0581
   411.16         2.0031
   411.30         1.9578
   411.44         1.9275
   411.58         1.9148
   411.72         1.9186
   411.86         1.9347
   412.00         1.9579
   412.14         1.9830
   412.28         2.0061
   412.42         2.0249
   412.56         2.0379
   412.70         2.0445
   412.84         2.0450
   412.98         2.0399
   413.12         2.0299
   413.26         2.0162
   413.40         2.0002
   413.54         1.9843
   413.68         1.9712
   413.82         1.9637
   413.96         1.9632
   414.10         1.9701
   414.24         1.9833
   414.38         2.0013
   414.52         2.0225
   414.66         2.0454
   414.80         2.0691
   414.94         2.0929
   415.08         2.1168
   415.22         2.1402
   415.36         2.1627
   415.50         2.1836
   415.64         2.2018
   415.78         2.2165
   415.92         2.2273
   416.06         2.2334
   416.20         2.2343
   416.34         2.2293
   416.48         2.2181
   416.62         2.2012
   416.76         2.1799
   416.90         2.1562
   417.04         2.1328
   417.18         2.1115
   417.32         2.0935
   417.46         2.0795
   417.60         2.0695
   417.74         2.0634
   417.88         2.0612
   418.02         2.0620
   418.16         2.0650
   418.30         2.0686
   418.44         2.0715
   418.58         2.0727
   418.72         2.0709
   418.86         2.0658
   419.00         2.0573
   419.14         2.0459
   419.28         2.0324
   419.42         2.0173
   419.56         2.0008
   419.70         1.9829
   419.84         1.9637
   419.98         1.9436
   420.12         1.9231
   420.26         1.9022
   420.40         1.8806
   420.54         1.8569
   420.68         1.8295
   420.82         1.7966
   420.96         1.7564
   421.10         1.7071
   421.24         1.6474
   421.38         1.5765
   421.52         1.4947
   421.66         1.4036
   421.80         1.3062
   421.94         1.2062
   422.08         1.1083
   422.22         1.0178
   422.36         0.9401
   422.50         0.8798
   422.64         0.8405
   422.78         0.8240
   422.92         0.8307
   423.06         0.8593
   423.20         0.9069
   423.34         0.9699
   423.48         1.0441
   423.62         1.1247
   423.76         1.2070
   423.90         1.2864
   424.04         1.3591
   424.18         1.4219
   424.32         1.4729
   424.46         1.5117
   424.60         1.5390
   424.74         1.5561
   424.88         1.5648
   425.02         1.5668
   425.16         1.5645
   425.30         1.5607
   425.44         1.5585
   425.58         1.5604
   425.72         1.5682
   425.86         1.5827
   426.00         1.6032
   426.14         1.6275
   426.28         1.6524
   426.42         1.6744
   426.56         1.6913
   426.70         1.7025
   426.84         1.7083
   426.98         1.7101
   427.12         1.7101
   427.26         1.7106
   427.40         1.7139
   427.54         1.7212
   427.68         1.7324
   427.82         1.7462
   427.96         1.7609
   428.10         1.7752
   428.24         1.7882
   428.38         1.7995
   428.52         1.8082
   428.66         1.8139
   428.80         1.8167
   428.94         1.8169
   429.08         1.8156
   429.22         1.8143
   429.36         1.8140
   429.50         1.8151
   429.64         1.8176
   429.78         1.8218
   429.92         1.8284
   430.06         1.8382
   430.20         1.8517
   430.34         1.8694
   430.48         1.8922
   430.62         1.9210
   430.76         1.9562
   430.90         1.9969
   431.04         2.0410
   431.18         2.0853
   431.32         2.1271
   431.46         2.1635
   431.60         2.1932
   431.74         2.2165
   431.88         2.2347
   432.02         2.2503
   432.16         2.2659
   432.30         2.2846
   432.44         2.3097
   432.58         2.3441
   432.72         2.3909
   432.86         2.4538
   433.00         2.5352
   433.14         2.6340
   433.28         2.7452
   433.42         2.8616
   433.56         2.9743
   433.70         3.0745
   433.84         3.1539
   433.98         3.2053
   434.12         3.2240
   434.26         3.2085
   434.40         3.1610
   434.54         3.0864
   434.68         2.9920
   434.82         2.8865
   434.96         2.7789
   435.10         2.6782
   435.24         2.5927
   435.38         2.5285
   435.52         2.4881
   435.66         2.4688
   435.80         2.4658
   435.94         2.4751
   436.08         2.4940
   436.22         2.5203
   436.36         2.5511
   436.50         2.5828
   436.64         2.6121
   436.78         2.6367
   436.92         2.6556
   437.06         2.6679
   437.20         2.6727
   437.34         2.6694
   437.48         2.6591
   437.62         2.6438
   437.76         2.6261
   437.90         2.6088
   438.04         2.5947
   438.18         2.5864
   438.32         2.5859
   438.46         2.5947
   438.60         2.6129
   438.74         2.6396
   438.88         2.6725
   439.02         2.7090
   439.16         2.7454
   439.30         2.7778
   439.44         2.8024
   439.58         2.8167
   439.72         2.8202
   439.86         2.8152
   440.00         2.8050
   440.14         2.7935
   440.28         2.7834
   440.42         2.7768
   440.56         2.7761
   440.70         2.7835
   440.84         2.8003
   440.98         2.8261
   441.12         2.8594
   441.26         2.8972
   441.40         2.9349
   441.54         2.9679
   441.68         2.9923
   441.82         3.0061
   441.96         3.0094
   442.10         3.0039
   442.24         2.9922
   442.38         2.9763
   442.52         2.9580
   442.66         2.9393
   442.80         2.9230
   442.94         2.9123
   443.08         2.9101
   443.22         2.9190
   443.36         2.9401
   443.50         2.9735
   443.64         3.0182
   443.78         3.0724
   443.92         3.1334
   444.06         3.1974
   444.20         3.2594
   444.34         3.3133
   444.48         3.3531
   444.62         3.3738
   444.76         3.3729
   444.90         3.3506
   445.04         3.3104
   445.18         3.2589
   445.32         3.2047
   445.46         3.1564
   445.60         3.1212
   445.74         3.1050
   445.88         3.1118
   446.02         3.1431
   446.16         3.1980
   446.30         3.2727
   446.44         3.3614
   446.58         3.4572
   446.72         3.5522
   446.86         3.6396
   447.00         3.7148
   447.14         3.7756
   447.28         3.8220
   447.42         3.8550
   447.56         3.8764
   447.70         3.8881
   447.84         3.8927
   447.98         3.8928
   448.12         3.8907
   448.26         3.8881
   448.40         3.8863
   448.54         3.8862
   448.68         3.8883
   448.82         3.8932
   448.96         3.9018
   449.10         3.9149
   449.24         3.9324
   449.38         3.9534
   449.52         3.9764
   449.66         3.9999
   449.80         4.0230
   449.94         4.0447
   450.08         4.0642
   450.22         4.0800
   450.36         4.0912
   450.50         4.0973
   450.64         4.0988
   450.78         4.0963
   450.92         4.0911
   451.06         4.0849
   451.20         4.0790
   451.34         4.0746
   451.48         4.0718
   451.62         4.0701
   451.76         4.0677
   451.90         4.0627
   452.04         4.0526
   452.18         4.0350
   452.32         4.0081
   452.46         3.9718
   452.60         3.9293
   452.74         3.8858
   452.88         3.8472
   453.02         3.8195
   453.16         3.8073
   453.30         3.8133
   453.44         3.8379
   453.58         3.8794
   453.72         3.9341
   453.86         3.9968
   454.00         4.0617
   454.14         4.1230
   454.28         4.1755
   454.42         4.2163
   454.56         4.2447
   454.70         4.2629
   454.84         4.2749
   454.98         4.2870
   455.12         4.3064
   455.26         4.3397
   455.40         4.3896
   455.54         4.4562
   455.68         4.5368
   455.82         4.6272
   455.96         4.7225
   456.10         4.8182
   456.24         4.9104
   456.38         4.9950
   456.52         5.0677
   456.66         5.1246
   456.80         5.1634
   456.94         5.1837
   457.08         5.1875
   457.22         5.1770
   457.36         5.1538
   457.50         5.1186
   457.64         5.0731
   457.78         5.0194
   457.92         4.9603
   458.06         4.8982
   458.20         4.8361
   458.34         4.7777
   458.48         4.7266
   458.62         4.6864
   458.76         4.6586
   458.90         4.6427
   459.04         4.6369
   459.18         4.6391
   459.32         4.6472
   459.46         4.6590
   459.60         4.6732
   459.74         4.6891
   459.88         4.7066
   460.02         4.7264
   460.16         4.7505
   460.30         4.7815
   460.44         4.8209
   460.58         4.8696
   460.72         4.9278
   460.86         4.9945
   461.00         5.0673
   461.14         5.1420
