# File SAO87716
# Wavelength [nm]    Normalized Amplitude
   349.70         49.9651
   349.84         49.8534
   349.98         49.6885
   350.12         49.4818
   350.26         49.2502
   350.40         49.0139
   350.54         48.7922
   350.68         48.5992
   350.82         48.4466
   350.96         48.3471
   351.10         48.3122
   351.24         48.3471
   351.38         48.4466
   351.52         48.5992
   351.66         48.7922
   351.80         49.0139
   351.94         49.2502
   352.08         49.4818
   352.22         49.6885
   352.36         49.8534
   352.50         49.9651
   352.64         50.0202
   352.78         50.0176
   352.92         49.9567
   353.06         49.8449
   353.20         49.6996
   353.34         49.5421
   353.48         49.3934
   353.62         49.2745
   353.76         49.2024
   353.90         49.1854
   354.04         49.2207
   354.18         49.2968
   354.32         49.4007
   354.46         49.5201
   354.60         49.6448
   354.74         49.7668
   354.88         49.8802
   355.02         49.9768
   355.16         50.0434
   355.30         50.0643
   355.44         50.0256
   355.58         49.9226
   355.72         49.7610
   355.86         49.5504
   356.00         49.2998
   356.14         49.0207
   356.28         48.7249
   356.42         48.4181
   356.56         48.1029
   356.70         47.7822
   356.84         47.4663
   356.98         47.1724
   357.12         46.9165
   357.26         46.7063
   357.40         46.5365
   357.54         46.3953
   357.68         46.2738
   357.82         46.1671
   357.96         46.0747
   358.10         45.9955
   358.24         45.9272
   358.38         45.8702
   358.52         45.8270
   358.66         45.8000
   358.80         45.7919
   358.94         45.8072
   359.08         45.8490
   359.22         45.9171
   359.36         46.0067
   359.50         46.1077
   359.64         46.2035
   359.78         46.2749
   359.92         46.3075
   360.06         46.2970
   360.20         46.2525
   360.34         46.1882
   360.48         46.1176
   360.62         46.0506
   360.76         45.9922
   360.90         45.9515
   361.04         45.9395
   361.18         45.9578
   361.32         45.9989
   361.46         46.0533
   361.60         46.1112
   361.74         46.1626
   361.88         46.2019
   362.02         46.2288
   362.16         46.2448
   362.30         46.2551
   362.44         46.2731
   362.58         46.3184
   362.72         46.4065
   362.86         46.5422
   363.00         46.7201
   363.14         46.9249
   363.28         47.1360
   363.42         47.3358
   363.56         47.5119
   363.70         47.6506
   363.84         47.7412
   363.98         47.7833
   364.12         47.7876
   364.26         47.7734
   364.40         47.7648
   364.54         47.7841
   364.68         47.8499
   364.82         47.9774
   364.96         48.1732
   365.10         48.4305
   365.24         48.7256
   365.38         49.0230
   365.52         49.2805
   365.66         49.4588
   365.80         49.5327
   365.94         49.4958
   366.08         49.3561
   366.22         49.1324
   366.36         48.8511
   366.50         48.5407
   366.64         48.2299
   366.78         47.9480
   366.92         47.7272
   367.06         47.5973
   367.20         47.5767
   367.34         47.6731
   367.48         47.8791
   367.62         48.1780
   367.76         48.5591
   367.90         49.0174
   368.04         49.5454
   368.18         50.1358
   368.32         50.7934
   368.46         51.5290
   368.60         52.3401
   368.74         53.2128
   368.88         54.1436
   369.02         55.1379
   369.16         56.1894
   369.30         57.2724
   369.44         58.3518
   369.58         59.4025
   369.72         60.4246
   369.86         61.4287
   370.00         62.4075
   370.14         63.3294
   370.28         64.1639
   370.42         64.9102
   370.56         65.6069
   370.70         66.3201
   370.84         67.1073
   370.98         67.9766
   371.12         68.8773
   371.26         69.7407
   371.40         70.5366
   371.54         71.2904
   371.68         72.0518
   371.82         72.8702
   371.96         73.7942
   372.10         74.8477
   372.24         75.9946
   372.38         77.1354
   372.52         78.1353
   372.66         78.8855
   372.80         79.3666
   372.94         79.6582
   373.08         79.8932
   373.22         80.1981
   373.36         80.6465
   373.50         81.2462
   373.64         81.9563
   373.78         82.7110
   373.92         83.4343
   374.06         84.0500
   374.20         84.4929
   374.34         84.7132
   374.48         84.6777
   374.62         84.3723
   374.76         83.8086
   374.90         83.0562
   375.04         82.2661
   375.18         81.6393
   375.32         81.3674
   375.46         81.5782
   375.60         82.2883
   375.74         83.3788
   375.88         84.6136
   376.02         85.7037
   376.16         86.4007
   376.30         86.5692
   376.44         86.2215
   376.58         85.5171
   376.72         84.7239
   376.86         84.1464
   377.00         84.0447
   377.14         84.5849
   377.28         85.8314
   377.42         87.7684
   377.56         90.3202
   377.70         93.3594
   377.84         96.7092
   377.98         100.1502
   378.12         103.4278
   378.26         106.2618
   378.40         108.3765
   378.54         109.5508
   378.68         109.6705
   378.82         108.7590
   378.96         106.9651
   379.10         104.5272
   379.24         101.7350
   379.38         98.8962
   379.52         96.3121
   379.66         94.2521
   379.80         92.9349
   379.94         92.5172
   380.08         93.0748
   380.22         94.5832
   380.36         96.9088
   380.50         99.8249
   380.64         103.0396
   380.78         106.2283
   380.92         109.0849
   381.06         111.3799
   381.20         112.9987
   381.34         113.9456
   381.48         114.3136
   381.62         114.2333
   381.76         113.8220
   381.90         113.1522
   382.04         112.2383
   382.18         111.0361
   382.32         109.4597
   382.46         107.4296
   382.60         104.9260
   382.74         102.0176
   382.88         98.8665
   383.02         95.7070
   383.16         92.8061
   383.30         90.4176
   383.44         88.7528
   383.58         87.9683
   383.72         88.1454
   383.86         89.2664
   384.00         91.2100
   384.14         93.7666
   384.28         96.6652
   384.42         99.6055
   384.56         102.2977
   384.70         104.5095
   384.84         106.1012
   384.98         107.0410
   385.12         107.4021
   385.26         107.3327
   385.40         107.0052
   385.54         106.5771
   385.68         106.1697
   385.82         105.8610
   385.96         105.6904
   386.10         105.6693
   386.24         105.7892
   386.38         106.0291
   386.52         106.3533
   386.66         106.7124
   386.80         107.0571
   386.94         107.3470
   387.08         107.5518
   387.22         107.6392
   387.36         107.5470
   387.50         107.1647
   387.64         106.3545
   387.78         105.0020
   387.92         103.0688
   388.06         100.6189
   388.20         97.8067
   388.34         94.8469
   388.48         91.9851
   388.62         89.4718
   388.76         87.5364
   388.90         86.3598
   389.04         86.0500
   389.18         86.6238
   389.32         88.0089
   389.46         90.0637
   389.60         92.5966
   389.74         95.3857
   389.88         98.1950
   390.02         100.7988
   390.16         103.0181
   390.30         104.7577
   390.44         106.0198
   390.58         106.8839
   390.72         107.4593
   390.86         107.8421
   391.00         108.1001
   391.14         108.2775
   391.28         108.4001
   391.42         108.4798
   391.56         108.5211
   391.70         108.5249
   391.84         108.4815
   391.98         108.3571
   392.12         108.0946
   392.26         107.6321
   392.40         106.9297
   392.54         105.9833
   392.68         104.8289
   392.82         103.5452
   392.96         102.2468
   393.10         101.0638
   393.24         100.1173
   393.38         99.5026
   393.52         99.2760
   393.66         99.4497
   393.80         99.9954
   393.94         100.8532
   394.08         101.9383
   394.22         103.1482
   394.36         104.3688
   394.50         105.4829
   394.64         106.3939
   394.78         107.0545
   394.92         107.4678
   395.06         107.6598
   395.20         107.6458
   395.34         107.4117
   395.48         106.8997
   395.62         106.0013
   395.76         104.5794
   395.90         102.5221
   396.04         99.8024
   396.18         96.5086
   396.32         92.8357
   396.46         89.0571
   396.60         85.4849
   396.74         82.4239
   396.88         80.1304
   397.02         78.7863
   397.16         78.4885
   397.30         79.2425
   397.44         80.9575
   397.58         83.4521
   397.72         86.4814
   397.86         89.7675
   398.00         93.0224
   398.14         95.9840
   398.28         98.4657
   398.42         100.3874
   398.56         101.7765
   398.70         102.7339
   398.84         103.3736
   398.98         103.7815
   399.12         104.0125
   399.26         104.0966
   399.40         104.0494
   399.54         103.8843
   399.68         103.6222
   399.82         103.2932
   399.96         102.9278
   400.10         102.5498
   400.24         102.1741
   400.38         101.8112
   400.52         101.4702
   400.66         101.1603
   400.80         100.8937
   400.94         100.6822
   401.08         100.5297
   401.22         100.4298
   401.36         100.3625
   401.50         100.3001
   401.64         100.2213
   401.78         100.1169
   401.92         99.9878
   402.06         99.8434
   402.20         99.6933
   402.34         99.5464
   402.48         99.4114
   402.62         99.2930
   402.76         99.1933
   402.90         99.1196
   403.04         99.0856
   403.18         99.1039
   403.32         99.1773
   403.46         99.2958
   403.60         99.4379
   403.74         99.5773
   403.88         99.6919
   404.02         99.7700
   404.16         99.8137
   404.30         99.8317
   404.44         99.8313
   404.58         99.8189
   404.72         99.8015
   404.86         99.7869
   405.00         99.7842
   405.14         99.7990
   405.28         99.8298
   405.42         99.8705
   405.56         99.9141
   405.70         99.9499
   405.84         99.9618
   405.98         99.9307
   406.12         99.8402
   406.26         99.6856
   406.40         99.4763
   406.54         99.2284
   406.68         98.9598
   406.82         98.6937
   406.96         98.4560
   407.10         98.2678
   407.24         98.1384
   407.38         98.0644
   407.52         98.0337
   407.66         98.0297
   407.80         98.0345
   407.94         98.0301
   408.08         97.9986
   408.22         97.9226
   408.36         97.7813
   408.50         97.5435
   408.64         97.1602
   408.78         96.5597
   408.92         95.6461
   409.06         94.3173
   409.20         92.5125
   409.34         90.2520
   409.48         87.6436
   409.62         84.8598
   409.76         82.1086
   409.90         79.6113
   410.04         77.5852
   410.18         76.2162
   410.32         75.6312
   410.46         75.8816
   410.60         76.9390
   410.74         78.6995
   410.88         80.9920
   411.02         83.5901
   411.16         86.2413
   411.30         88.7043
   411.44         90.7835
   411.58         92.3515
   411.72         93.3658
   411.86         93.8668
   412.00         93.9441
   412.14         93.7052
   412.28         93.2575
   412.42         92.7001
   412.56         92.1248
   412.70         91.6116
   412.84         91.2217
   412.98         90.9946
   413.12         90.9465
   413.26         91.0713
   413.40         91.3405
   413.54         91.7087
   413.68         92.1275
   413.82         92.5546
   413.96         92.9540
   414.10         93.2932
   414.24         93.5459
   414.38         93.7029
   414.52         93.7824
   414.66         93.8176
   414.80         93.8394
   414.94         93.8650
   415.08         93.8975
   415.22         93.9322
   415.36         93.9623
   415.50         93.9821
   415.64         93.9899
   415.78         93.9868
   415.92         93.9711
   416.06         93.9310
   416.20         93.8496
   416.34         93.7140
   416.48         93.5149
   416.62         93.2435
   416.76         92.8945
   416.90         92.4740
   417.04         92.0066
   417.18         91.5304
   417.32         91.0822
   417.46         90.6955
   417.60         90.4039
   417.74         90.2346
   417.88         90.2055
   418.02         90.3217
   418.16         90.5721
   418.30         90.9270
   418.44         91.3414
   418.58         91.7638
   418.72         92.1460
   418.86         92.4524
   419.00         92.6627
   419.14         92.7661
   419.28         92.7594
   419.42         92.6552
   419.56         92.4832
   419.70         92.2784
   419.84         92.0695
   419.98         91.8778
   420.12         91.7239
   420.26         91.6240
   420.40         91.5847
   420.54         91.6033
   420.68         91.6676
   420.82         91.7566
   420.96         91.8445
   421.10         91.9064
   421.24         91.9213
   421.38         91.8713
   421.52         91.7459
   421.66         91.5488
   421.80         91.2955
   421.94         91.0068
   422.08         90.6982
   422.22         90.3733
   422.36         90.0340
   422.50         89.6907
   422.64         89.3643
   422.78         89.0778
   422.92         88.8477
   423.06         88.6797
   423.20         88.5718
   423.34         88.5192
   423.48         88.5173
   423.62         88.5609
   423.76         88.6445
   423.90         88.7634
   424.04         88.9088
   424.18         89.0665
   424.32         89.2198
   424.46         89.3502
   424.60         89.4389
   424.74         89.4708
   424.88         89.4438
   425.02         89.3728
   425.16         89.2787
   425.30         89.1783
   425.44         89.0790
   425.58         88.9809
   425.72         88.8826
   425.86         88.7829
   426.00         88.6795
   426.14         88.5671
   426.28         88.4393
   426.42         88.2933
   426.56         88.1312
   426.70         87.9574
   426.84         87.7798
   426.98         87.6095
   427.12         87.4593
   427.26         87.3401
   427.40         87.2615
   427.54         87.2314
   427.68         87.2522
   427.82         87.3188
   427.96         87.4206
   428.10         87.5432
   428.24         87.6702
   428.38         87.7830
   428.52         87.8619
   428.66         87.8912
   428.80         87.8632
   428.94         87.7760
   429.08         87.6290
   429.22         87.4213
   429.36         87.1551
   429.50         86.8404
   429.64         86.4953
   429.78         86.1456
   429.92         85.8202
   430.06         85.5441
   430.20         85.3333
   430.34         85.1939
   430.48         85.1294
   430.62         85.1428
   430.76         85.2323
   430.90         85.3868
   431.04         85.5852
   431.18         85.8023
   431.32         86.0131
   431.46         86.1952
   431.60         86.3305
   431.74         86.4091
   431.88         86.4331
   432.02         86.4116
   432.16         86.3492
   432.30         86.2349
   432.44         86.0393
   432.58         85.7130
   432.72         85.1800
   432.86         84.3444
   433.00         83.1245
   433.14         81.4884
   433.28         79.4768
   433.42         77.2012
   433.56         74.8235
   433.70         72.5352
   433.84         70.5322
   433.98         68.9827
   434.12         68.0082
   434.26         67.6792
   434.40         68.0122
   434.54         68.9654
   434.68         70.4410
   434.82         72.2974
   434.96         74.3660
   435.10         76.4700
   435.24         78.4451
   435.38         80.1630
   435.52         81.5576
   435.66         82.6330
   435.80         83.4404
   435.94         84.0469
   436.08         84.5083
   436.22         84.8597
   436.36         85.1196
   436.50         85.2934
   436.64         85.3863
   436.78         85.4172
   436.92         85.4170
   437.06         85.4110
   437.20         85.4071
   437.34         85.3938
   437.48         85.3486
   437.62         85.2467
   437.76         85.0704
   437.90         84.8172
   438.04         84.5006
   438.18         84.1427
   438.32         83.7667
   438.46         83.3964
   438.60         83.0577
   438.74         82.7762
   438.88         82.5715
   439.02         82.4534
   439.16         82.4237
   439.30         82.4787
   439.44         82.6046
   439.58         82.7740
   439.72         82.9526
   439.86         83.1121
   440.00         83.2378
   440.14         83.3286
   440.28         83.3875
   440.42         83.4120
   440.56         83.3914
   440.70         83.3064
   440.84         83.1402
   440.98         82.8875
   441.12         82.5568
   441.26         82.1678
   441.40         81.7449
   441.54         81.3117
   441.68         80.8893
   441.82         80.4984
   441.96         80.1559
   442.10         79.8721
   442.24         79.6524
   442.38         79.4982
   442.52         79.4058
   442.66         79.3652
   442.80         79.3627
   442.94         79.3826
   443.08         79.4111
   443.22         79.4385
   443.36         79.4631
   443.50         79.4933
   443.64         79.5408
   443.78         79.6131
   443.92         79.7134
   444.06         79.8417
   444.20         79.9970
   444.34         80.1800
   444.48         80.3910
   444.62         80.6255
   444.76         80.8750
   444.90         81.1282
   445.04         81.3716
   445.18         81.5927
   445.32         81.7824
   445.46         81.9331
   445.60         82.0330
   445.74         82.0673
   445.88         82.0245
   446.02         81.9000
   446.16         81.6940
   446.30         81.4128
   446.44         81.0716
   446.58         80.6925
   446.72         80.2996
   446.86         79.9030
   447.00         79.4955
   447.14         79.0687
   447.28         78.6275
   447.42         78.1932
   447.56         77.7916
   447.70         77.4403
   447.84         77.1461
   447.98         76.9099
   448.12         76.7297
   448.26         76.6042
   448.40         76.5381
   448.54         76.5428
   448.68         76.6282
   448.82         76.7938
   448.96         77.0278
   449.10         77.3074
   449.24         77.6007
   449.38         77.8719
   449.52         78.0853
   449.66         78.2207
   449.80         78.2826
   449.94         78.2899
   450.08         78.2613
   450.22         78.2013
   450.36         78.1059
   450.50         77.9775
   450.64         77.8309
   450.78         77.6810
   450.92         77.5296
   451.06         77.3681
   451.20         77.1881
   451.34         76.9882
   451.48         76.7780
   451.62         76.5759
   451.76         76.4060
   451.90         76.2918
   452.04         76.2459
   452.18         76.2690
   452.32         76.3554
   452.46         76.4974
   452.60         76.6832
   452.74         76.8921
   452.88         77.0953
   453.02         77.2634
   453.16         77.3777
   453.30         77.4313
   453.44         77.4226
   453.58         77.3534
   453.72         77.2309
   453.86         77.0669
   454.00         76.8764
   454.14         76.6754
   454.28         76.4721
   454.42         76.2637
   454.56         76.0426
   454.70         75.8035
   454.84         75.5505
   454.98         75.2997
   455.12         75.0743
   455.26         74.8959
   455.40         74.7780
   455.54         74.7257
   455.68         74.7429
   455.82         74.8354
   455.96         75.0016
   456.10         75.2243
   456.24         75.4756
