# File YALE1755
# Wavelength [nm]    Normalized Amplitude
   349.70         0.4452
   349.84         0.4472
   349.98         0.4528
   350.12         0.4618
   350.26         0.4729
   350.40         0.4847
   350.54         0.4960
   350.68         0.5058
   350.82         0.5135
   350.96         0.5187
   351.10         0.5206
   351.24         0.5187
   351.38         0.5135
   351.52         0.5058
   351.66         0.4960
   351.80         0.4847
   351.94         0.4729
   352.08         0.4618
   352.22         0.4528
   352.36         0.4472
   352.50         0.4452
   352.64         0.4471
   352.78         0.4525
   352.92         0.4608
   353.06         0.4714
   353.20         0.4836
   353.34         0.4970
   353.48         0.5107
   353.62         0.5233
   353.76         0.5334
   353.90         0.5408
   354.04         0.5455
   354.18         0.5478
   354.32         0.5480
   354.46         0.5471
   354.60         0.5454
   354.74         0.5425
   354.88         0.5381
   355.02         0.5319
   355.16         0.5230
   355.30         0.5110
   355.44         0.4960
   355.58         0.4788
   355.72         0.4602
   355.86         0.4405
   356.00         0.4200
   356.14         0.3988
   356.28         0.3769
   356.42         0.3558
   356.56         0.3368
   356.70         0.3210
   356.84         0.3088
   356.98         0.2999
   357.12         0.2934
   357.26         0.2883
   357.40         0.2842
   357.54         0.2812
   357.68         0.2795
   357.82         0.2794
   357.96         0.2814
   358.10         0.2863
   358.24         0.2946
   358.38         0.3061
   358.52         0.3203
   358.66         0.3365
   358.80         0.3540
   358.94         0.3723
   359.08         0.3910
   359.22         0.4093
   359.36         0.4253
   359.50         0.4375
   359.64         0.4445
   359.78         0.4461
   359.92         0.4428
   360.06         0.4353
   360.20         0.4253
   360.34         0.4148
   360.48         0.4051
   360.62         0.3968
   360.76         0.3902
   360.90         0.3860
   361.04         0.3848
   361.18         0.3871
   361.32         0.3929
   361.46         0.4019
   361.60         0.4137
   361.74         0.4269
   361.88         0.4400
   362.02         0.4520
   362.16         0.4626
   362.30         0.4720
   362.44         0.4799
   362.58         0.4862
   362.72         0.4915
   362.86         0.4961
   363.00         0.4997
   363.14         0.5016
   363.28         0.5021
   363.42         0.5010
   363.56         0.4976
   363.70         0.4908
   363.84         0.4805
   363.98         0.4673
   364.12         0.4521
   364.26         0.4361
   364.40         0.4209
   364.54         0.4082
   364.68         0.3999
   364.82         0.3968
   364.96         0.3991
   365.10         0.4062
   365.24         0.4179
   365.38         0.4337
   365.52         0.4526
   365.66         0.4726
   365.80         0.4920
   365.94         0.5087
   366.08         0.5207
   366.22         0.5272
   366.36         0.5293
   366.50         0.5284
   366.64         0.5255
   366.78         0.5210
   366.92         0.5157
   367.06         0.5105
   367.20         0.5062
   367.34         0.5029
   367.48         0.5005
   367.62         0.4983
   367.76         0.4966
   367.90         0.4959
   368.04         0.4965
   368.18         0.4985
   368.32         0.5017
   368.46         0.5065
   368.60         0.5126
   368.74         0.5202
   368.88         0.5288
   369.02         0.5377
   369.16         0.5460
   369.30         0.5527
   369.44         0.5568
   369.58         0.5574
   369.72         0.5538
   369.86         0.5461
   370.00         0.5348
   370.14         0.5208
   370.28         0.5055
   370.42         0.4907
   370.56         0.4776
   370.70         0.4670
   370.84         0.4589
   370.98         0.4522
   371.12         0.4464
   371.26         0.4405
   371.40         0.4343
   371.54         0.4276
   371.68         0.4206
   371.82         0.4138
   371.96         0.4071
   372.10         0.4004
   372.24         0.3939
   372.38         0.3872
   372.52         0.3799
   372.66         0.3717
   372.80         0.3624
   372.94         0.3527
   373.08         0.3436
   373.22         0.3354
   373.36         0.3284
   373.50         0.3221
   373.64         0.3169
   373.78         0.3134
   373.92         0.3119
   374.06         0.3130
   374.20         0.3169
   374.34         0.3239
   374.48         0.3335
   374.62         0.3451
   374.76         0.3579
   374.90         0.3714
   375.04         0.3855
   375.18         0.4002
   375.32         0.4156
   375.46         0.4315
   375.60         0.4472
   375.74         0.4622
   375.88         0.4758
   376.02         0.4879
   376.16         0.4992
   376.30         0.5111
   376.44         0.5249
   376.58         0.5412
   376.72         0.5597
   376.86         0.5799
   377.00         0.6006
   377.14         0.6205
   377.28         0.6382
   377.42         0.6525
   377.56         0.6623
   377.70         0.6667
   377.84         0.6657
   377.98         0.6600
   378.12         0.6511
   378.26         0.6408
   378.40         0.6304
   378.54         0.6208
   378.68         0.6125
   378.82         0.6063
   378.96         0.6023
   379.10         0.6002
   379.24         0.5993
   379.38         0.5991
   379.52         0.5998
   379.66         0.6014
   379.80         0.6039
   379.94         0.6073
   380.08         0.6111
   380.22         0.6154
   380.36         0.6199
   380.50         0.6244
   380.64         0.6281
   380.78         0.6302
   380.92         0.6298
   381.06         0.6257
   381.20         0.6177
   381.34         0.6055
   381.48         0.5899
   381.62         0.5723
   381.76         0.5542
   381.90         0.5372
   382.04         0.5229
   382.18         0.5125
   382.32         0.5065
   382.46         0.5048
   382.60         0.5066
   382.74         0.5110
   382.88         0.5171
   383.02         0.5240
   383.16         0.5313
   383.30         0.5387
   383.44         0.5465
   383.58         0.5549
   383.72         0.5639
   383.86         0.5735
   384.00         0.5838
   384.14         0.5947
   384.28         0.6054
   384.42         0.6143
   384.56         0.6197
   384.70         0.6201
   384.84         0.6144
   384.98         0.6025
   385.12         0.5851
   385.26         0.5637
   385.40         0.5406
   385.54         0.5189
   385.68         0.5018
   385.82         0.4920
   385.96         0.4910
   386.10         0.4995
   386.24         0.5162
   386.38         0.5383
   386.52         0.5624
   386.66         0.5859
   386.80         0.6064
   386.94         0.6222
   387.08         0.6321
   387.22         0.6355
   387.36         0.6325
   387.50         0.6243
   387.64         0.6127
   387.78         0.6000
   387.92         0.5881
   388.06         0.5792
   388.20         0.5745
   388.34         0.5743
   388.48         0.5776
   388.62         0.5833
   388.76         0.5898
   388.90         0.5960
   389.04         0.6018
   389.18         0.6082
   389.32         0.6159
   389.46         0.6247
   389.60         0.6336
   389.74         0.6416
   389.88         0.6480
   390.02         0.6529
   390.16         0.6567
   390.30         0.6603
   390.44         0.6648
   390.58         0.6706
   390.72         0.6776
   390.86         0.6848
   391.00         0.6912
   391.14         0.6956
   391.28         0.6974
   391.42         0.6967
   391.56         0.6937
   391.70         0.6883
   391.84         0.6803
   391.98         0.6693
   392.12         0.6552
   392.26         0.6389
   392.40         0.6219
   392.54         0.6058
   392.68         0.5921
   392.82         0.5819
   392.96         0.5755
   393.10         0.5723
   393.24         0.5707
   393.38         0.5694
   393.52         0.5678
   393.66         0.5657
   393.80         0.5635
   393.94         0.5622
   394.08         0.5631
   394.22         0.5669
   394.36         0.5738
   394.50         0.5837
   394.64         0.5958
   394.78         0.6088
   394.92         0.6206
   395.06         0.6292
   395.20         0.6335
   395.34         0.6330
   395.48         0.6278
   395.62         0.6182
   395.76         0.6055
   395.90         0.5916
   396.04         0.5792
   396.18         0.5710
   396.32         0.5690
   396.46         0.5753
   396.60         0.5910
   396.74         0.6158
   396.88         0.6483
   397.02         0.6867
   397.16         0.7288
   397.30         0.7723
   397.44         0.8150
   397.58         0.8559
   397.72         0.8943
   397.86         0.9297
   398.00         0.9614
   398.14         0.9887
   398.28         1.0111
   398.42         1.0285
   398.56         1.0417
   398.70         1.0515
   398.84         1.0589
   398.98         1.0646
   399.12         1.0695
   399.26         1.0743
   399.40         1.0795
   399.54         1.0858
   399.68         1.0940
   399.82         1.1049
   399.96         1.1184
   400.10         1.1346
   400.24         1.1528
   400.38         1.1720
   400.52         1.1909
   400.66         1.2083
   400.80         1.2234
   400.94         1.2352
   401.08         1.2429
   401.22         1.2462
   401.36         1.2448
   401.50         1.2389
   401.64         1.2290
   401.78         1.2157
   401.92         1.1995
   402.06         1.1805
   402.20         1.1595
   402.34         1.1377
   402.48         1.1168
   402.62         1.0986
   402.76         1.0847
   402.90         1.0761
   403.04         1.0733
   403.18         1.0761
   403.32         1.0833
   403.46         1.0931
   403.60         1.1040
   403.74         1.1150
   403.88         1.1259
   404.02         1.1367
   404.16         1.1475
   404.30         1.1577
   404.44         1.1671
   404.58         1.1757
   404.72         1.1840
   404.86         1.1929
   405.00         1.2029
   405.14         1.2129
   405.28         1.2216
   405.42         1.2268
   405.56         1.2271
   405.70         1.2214
   405.84         1.2096
   405.98         1.1929
   406.12         1.1734
   406.26         1.1533
   406.40         1.1348
   406.54         1.1188
   406.68         1.1056
   406.82         1.0947
   406.96         1.0860
   407.10         1.0795
   407.24         1.0756
   407.38         1.0741
   407.52         1.0745
   407.66         1.0763
   407.80         1.0793
   407.94         1.0835
   408.08         1.0890
   408.22         1.0958
   408.36         1.1038
   408.50         1.1123
   408.64         1.1205
   408.78         1.1276
   408.92         1.1326
   409.06         1.1350
   409.20         1.1347
   409.34         1.1321
   409.48         1.1277
   409.62         1.1229
   409.76         1.1186
   409.90         1.1157
   410.04         1.1141
   410.18         1.1137
   410.32         1.1145
   410.46         1.1162
   410.60         1.1183
   410.74         1.1204
   410.88         1.1224
   411.02         1.1240
   411.16         1.1254
   411.30         1.1270
   411.44         1.1292
   411.58         1.1324
   411.72         1.1363
   411.86         1.1405
   412.00         1.1447
   412.14         1.1485
   412.28         1.1515
   412.42         1.1532
   412.56         1.1533
   412.70         1.1517
   412.84         1.1487
   412.98         1.1447
   413.12         1.1403
   413.26         1.1363
   413.40         1.1335
   413.54         1.1330
   413.68         1.1356
   413.82         1.1415
   413.96         1.1508
   414.10         1.1628
   414.24         1.1764
   414.38         1.1908
   414.52         1.2052
   414.66         1.2194
   414.80         1.2330
   414.94         1.2457
   415.08         1.2570
   415.22         1.2663
   415.36         1.2730
   415.50         1.2769
   415.64         1.2777
   415.78         1.2760
   415.92         1.2723
   416.06         1.2671
   416.20         1.2600
   416.34         1.2509
   416.48         1.2400
   416.62         1.2283
   416.76         1.2168
   416.90         1.2065
   417.04         1.1981
   417.18         1.1920
   417.32         1.1882
   417.46         1.1865
   417.60         1.1865
   417.74         1.1875
   417.88         1.1891
   418.02         1.1907
   418.16         1.1922
   418.30         1.1936
   418.44         1.1950
   418.58         1.1962
   418.72         1.1965
   418.86         1.1959
   419.00         1.1941
   419.14         1.1913
   419.28         1.1870
   419.42         1.1811
   419.56         1.1731
   419.70         1.1627
   419.84         1.1501
   419.98         1.1357
   420.12         1.1196
   420.26         1.1022
   420.40         1.0837
   420.54         1.0641
   420.68         1.0431
   420.82         1.0204
   420.96         0.9954
   421.10         0.9668
   421.24         0.9334
   421.38         0.8941
   421.52         0.8483
   421.66         0.7963
   421.80         0.7394
   421.94         0.6802
   422.08         0.6215
   422.22         0.5668
   422.36         0.5193
   422.50         0.4823
   422.64         0.4584
   422.78         0.4492
   422.92         0.4548
   423.06         0.4736
   423.20         0.5035
   423.34         0.5416
   423.48         0.5849
   423.62         0.6302
   423.76         0.6744
   423.90         0.7148
   424.04         0.7498
   424.18         0.7782
   424.32         0.8001
   424.46         0.8161
   424.60         0.8274
   424.74         0.8351
   424.88         0.8401
   425.02         0.8434
   425.16         0.8461
   425.30         0.8493
   425.44         0.8534
   425.58         0.8593
   425.72         0.8678
   425.86         0.8791
   426.00         0.8928
   426.14         0.9074
   426.28         0.9213
   426.42         0.9329
   426.56         0.9411
   426.70         0.9458
   426.84         0.9476
   426.98         0.9476
   427.12         0.9472
   427.26         0.9479
   427.40         0.9509
   427.54         0.9567
   427.68         0.9653
   427.82         0.9758
   427.96         0.9867
   428.10         0.9969
   428.24         1.0056
   428.38         1.0122
   428.52         1.0160
   428.66         1.0167
   428.80         1.0146
   428.94         1.0109
   429.08         1.0068
   429.22         1.0037
   429.36         1.0027
   429.50         1.0043
   429.64         1.0083
   429.78         1.0141
   429.92         1.0213
   430.06         1.0298
   430.20         1.0394
   430.34         1.0501
   430.48         1.0619
   430.62         1.0752
   430.76         1.0906
   430.90         1.1078
   431.04         1.1263
   431.18         1.1451
   431.32         1.1637
   431.46         1.1813
   431.60         1.1974
   431.74         1.2121
   431.88         1.2260
   432.02         1.2396
   432.16         1.2532
   432.30         1.2671
   432.44         1.2817
   432.58         1.2974
   432.72         1.3134
   432.86         1.3289
   433.00         1.3430
   433.14         1.3554
   433.28         1.3662
   433.42         1.3760
   433.56         1.3851
   433.70         1.3940
   433.84         1.4027
   433.98         1.4111
   434.12         1.4183
   434.26         1.4235
   434.40         1.4262
   434.54         1.4258
   434.68         1.4218
   434.82         1.4140
   434.96         1.4025
   435.10         1.3876
   435.24         1.3703
   435.38         1.3520
   435.52         1.3345
   435.66         1.3198
   435.80         1.3097
   435.94         1.3056
   436.08         1.3076
   436.22         1.3154
   436.36         1.3277
   436.50         1.3432
   436.64         1.3602
   436.78         1.3772
   436.92         1.3931
   437.06         1.4068
   437.20         1.4169
   437.34         1.4222
   437.48         1.4225
   437.62         1.4180
   437.76         1.4100
   437.90         1.4001
   438.04         1.3906
   438.18         1.3838
   438.32         1.3815
   438.46         1.3847
   438.60         1.3935
   438.74         1.4077
   438.88         1.4266
   439.02         1.4490
   439.16         1.4731
   439.30         1.4963
   439.44         1.5163
   439.58         1.5311
   439.72         1.5399
   439.86         1.5435
   440.00         1.5434
   440.14         1.5419
   440.28         1.5405
   440.42         1.5409
   440.56         1.5446
   440.70         1.5529
   440.84         1.5659
   440.98         1.5831
   441.12         1.6033
   441.26         1.6250
   441.40         1.6459
   441.54         1.6640
   441.68         1.6777
   441.82         1.6867
   441.96         1.6918
   442.10         1.6943
   442.24         1.6955
   442.38         1.6956
   442.52         1.6949
   442.66         1.6937
   442.80         1.6928
   442.94         1.6933
   443.08         1.6965
   443.22         1.7031
   443.36         1.7132
   443.50         1.7265
   443.64         1.7429
   443.78         1.7624
   443.92         1.7848
   444.06         1.8098
   444.20         1.8357
   444.34         1.8598
   444.48         1.8793
   444.62         1.8920
   444.76         1.8966
   444.90         1.8929
   445.04         1.8824
   445.18         1.8679
   445.32         1.8526
   445.46         1.8396
   445.60         1.8308
   445.74         1.8279
   445.88         1.8319
   446.02         1.8434
   446.16         1.8622
   446.30         1.8875
   446.44         1.9176
   446.58         1.9504
   446.72         1.9835
   446.86         2.0150
   447.00         2.0440
   447.14         2.0707
   447.28         2.0953
   447.42         2.1178
   447.56         2.1378
   447.70         2.1548
   447.84         2.1686
   447.98         2.1793
   448.12         2.1871
   448.26         2.1924
   448.40         2.1957
   448.54         2.1979
   448.68         2.1998
   448.82         2.2025
   448.96         2.2067
   449.10         2.2130
   449.24         2.2214
   449.38         2.2317
   449.52         2.2426
   449.66         2.2526
   449.80         2.2605
   449.94         2.2658
   450.08         2.2678
   450.22         2.2664
   450.36         2.2616
   450.50         2.2543
   450.64         2.2460
   450.78         2.2382
   450.92         2.2327
   451.06         2.2311
   451.20         2.2345
   451.34         2.2429
   451.48         2.2554
   451.62         2.2699
   451.76         2.2840
   451.90         2.2960
   452.04         2.3040
   452.18         2.3063
   452.32         2.3027
   452.46         2.2940
   452.60         2.2825
   452.74         2.2713
   452.88         2.2641
   453.02         2.2645
   453.16         2.2747
   453.30         2.2950
   453.44         2.3245
   453.58         2.3604
   453.72         2.3992
   453.86         2.4368
   454.00         2.4693
   454.14         2.4932
   454.28         2.5067
   454.42         2.5101
   454.56         2.5047
   454.70         2.4934
   454.84         2.4801
   454.98         2.4689
   455.12         2.4640
   455.26         2.4686
   455.40         2.4851
   455.54         2.5142
   455.68         2.5547
   455.82         2.6038
   455.96         2.6581
   456.10         2.7140
   456.24         2.7689
   456.38         2.8205
   456.52         2.8667
   456.66         2.9058
   456.80         2.9372
   456.94         2.9607
   457.08         2.9764
   457.22         2.9837
   457.36         2.9815
   457.50         2.9685
   457.64         2.9442
   457.78         2.9098
   457.92         2.8677
   458.06         2.8201
   458.20         2.7691
   458.34         2.7170
   458.48         2.6666
   458.62         2.6214
   458.76         2.5844
   458.90         2.5575
   459.04         2.5417
   459.18         2.5368
   459.32         2.5417
   459.46         2.5545
   459.60         2.5728
   459.74         2.5946
   459.88         2.6187
   460.02         2.6449
   460.16         2.6733
   460.30         2.7045
   460.44         2.7385
   460.58         2.7756
   460.72         2.8155
   460.86         2.8584
   461.00         2.9036
   461.14         2.9498
